Time(s),Position(V)
0.356000,-1.148593
3.370000,-1.148280
6.370000,-1.131487
9.368000,-1.130477
12.369000,-1.125103
15.369000,-1.115560
18.369000,-1.106769
21.369000,-1.087984
24.367000,-1.083480
27.367000,-1.085376
30.368000,-1.077316
33.368000,-1.060996
36.368000,-1.056315
39.368000,-1.052245
42.366000,-1.051735
45.366000,-1.046357
48.367000,-1.039436
51.367000,-1.029649
54.367000,-1.029506
57.365000,-1.015626
60.365000,-1.021531
63.365000,-1.010463
66.365000,-0.996617
69.366000,-1.004938
72.365000,-0.987411
75.365000,-0.989444
78.365000,-0.989712
81.363000,-0.975322
84.363000,-0.979075
87.364000,-0.965902
90.364000,-0.964634
93.364000,-0.957720
96.362000,-0.957914
99.362000,-0.973480
102.362000,-1.004320
105.362000,-1.007978
108.363000,-0.950809
111.361000,-0.956615
114.361000,-0.943595
117.362000,-0.930116
120.360000,-0.921288
123.360000,-0.906558
126.361000,-0.895432
129.361000,-0.880100
132.361000,-0.864337
135.359000,-0.844987
138.359000,-0.827041
141.359000,-0.801576
144.359000,-0.774125
147.360000,-0.739063
150.360000,-0.703688
153.358000,-0.659210
156.358000,-0.611648
159.358000,-0.564273
162.358000,-0.518200
165.359000,-0.461300
168.357000,-0.413368
171.357000,-0.352504
174.358000,-0.293618
177.356000,-0.234107
180.356000,-0.178509
183.356000,-0.126229
186.357000,-0.073214
189.357000,-0.016277
192.355000,0.041072
195.355000,0.096171
198.355000,0.147948
201.355000,0.207966
204.356000,0.269367
207.354000,0.329313
210.355000,0.393376
213.355000,0.461032
216.353000,0.531353
219.353000,0.599832
222.353000,0.665234
225.354000,0.743218
228.354000,0.819192
231.352000,0.893283
234.352000,0.970400
237.352000,1.044162
240.352000,1.122968
243.353000,1.198463
246.353000,1.273771
249.351000,1.340350
252.351000,1.414540
255.351000,1.484348
258.351000,1.553248
261.350000,1.623511
264.351000,1.693523
267.351000,1.765337
270.349000,1.836073
273.349000,1.909158
276.349000,1.982277
279.349000,2.051694
282.350000,2.126485
285.350000,2.197769
288.348000,2.272295
291.348000,2.341814
294.348000,2.408110
297.348000,2.475297
300.347000,2.533415
303.348000,2.596560
306.348000,2.656961
309.348000,2.718825
312.346000,2.778325
315.347000,2.838554
318.347000,2.899683
321.346000,2.955325
324.346000,3.019381
327.346000,3.078593
330.346000,3.145681
333.346000,3.197921
336.344000,3.246173
339.344000,3.292467
342.345000,3.335212
345.345000,3.374339
348.345000,3.414776
351.343000,3.453163
354.343000,3.486535
357.343000,3.513326
360.344000,3.553522
363.344000,3.593696
366.342000,3.631699
369.342000,3.675086
372.343000,3.717087
375.341000,3.757261
378.342000,3.792164
381.342000,3.828001
384.342000,3.854544
387.342000,3.879353
390.340000,3.899087
393.340000,3.914935
396.340000,3.926289
399.341000,3.936182
402.341000,3.949634
405.341000,3.961049
408.339000,3.965081
411.339000,3.972831
414.339000,3.972947
417.340000,3.982129
420.340000,3.985141
423.338000,3.987330
426.338000,3.986565
429.338000,3.986168
432.338000,3.986028
435.338000,3.982687
438.337000,3.979335
441.337000,3.973403
444.337000,3.964676
447.337000,3.949042
450.337000,3.936546
453.335000,3.920769
456.336000,3.903010
459.336000,3.892302
462.336000,3.865966
465.336000,3.840480
468.334000,3.812693
471.334000,3.782914
474.334000,3.750707
477.335000,3.713476
480.335000,3.676966
483.335000,3.643383
486.333000,3.614209
489.333000,3.578239
492.333000,3.545934
495.334000,3.515716
498.334000,3.487487
501.332000,3.451827
504.332000,3.418077
507.332000,3.384184
510.332000,3.350856
513.332000,3.314121
516.333000,3.275741
519.331000,3.235685
522.331000,3.192815
525.331000,3.145586
528.331000,3.096875
531.331000,3.041539
534.330000,2.984285
537.330000,2.924961
540.330000,2.871063
543.330000,2.820312
546.329000,2.769487
549.329000,2.718427
552.329000,2.672194
555.329000,2.625380
558.329000,2.580116
561.329000,2.531365
564.329000,2.485754
567.327000,2.441357
570.327000,2.395811
573.328000,2.345071
576.328000,2.296139
579.328000,2.244199
582.326000,2.191657
585.326000,2.138499
588.326000,2.083741
591.326000,2.029166
594.327000,1.974264
597.325000,1.915267
600.325000,1.858108
603.325000,1.804040
606.325000,1.750155
609.325000,1.698011
612.324000,1.645081
615.324000,1.590673
618.324000,1.544695
621.324000,1.493880
624.324000,1.446314
627.324000,1.400041
630.323000,1.353122
633.324000,1.306712
636.322000,1.262329
639.322000,1.218234
642.322000,1.172559
645.322000,1.129784
648.322000,1.088858
651.323000,1.048095
654.321000,1.008855
657.321000,0.969452
660.321000,0.929845
663.321000,0.890737
666.321000,0.853724
669.319000,0.815670
672.320000,0.781914
675.320000,0.747950
678.320000,0.718252
681.320000,0.690784
684.318000,0.654233
687.318000,0.626660
690.319000,0.598567
693.319000,0.571059
696.319000,0.549945
699.317000,0.523619
702.317000,0.501832
705.317000,0.477461
708.317000,0.457207
711.318000,0.440910
714.318000,0.422036
717.316000,0.403727
720.316000,0.384979
723.316000,0.375348
726.316000,0.357491
729.317000,0.352279
732.315000,0.340949
735.315000,0.324924
738.315000,0.323972
741.315000,0.314889
744.315000,0.309511
747.313000,0.303399
750.314000,0.305955
753.314000,0.303990
756.314000,0.303310
759.314000,0.304928
762.314000,0.310537
765.312000,0.309766
768.313000,0.312683
771.313000,0.330390
774.313000,0.329772
777.313000,0.341476
780.311000,0.352490
783.311000,0.366204
786.312000,0.372285
789.312000,0.392305
792.312000,0.405488
795.312000,0.421642
798.310000,0.428366
801.310000,0.453515
804.310000,0.469731
807.311000,0.492008
810.311000,0.511269
813.309000,0.530758
816.309000,0.555166
819.309000,0.577909
822.309000,0.602718
825.310000,0.629869
828.308000,0.655321
831.308000,0.681436
834.308000,0.710984
837.308000,0.743472
840.308000,0.767534
843.306000,0.804282
846.307000,0.835204
849.307000,0.869076
852.307000,0.904559
855.307000,0.936990
858.307000,0.957129
861.305000,0.999007
864.306000,1.031332
867.306000,1.067441
870.306000,1.101120
873.306000,1.139744
876.304000,1.170673
879.304000,1.209403
882.304000,1.246803
885.304000,1.285313
888.304000,1.323849
891.304000,1.360237
894.304000,1.400609
897.304000,1.438125
900.302000,1.476757
903.303000,1.515398
906.303000,1.555073
909.303000,1.596289
912.303000,1.634216
915.301000,1.673327
918.301000,1.715650
921.301000,1.756281
924.302000,1.797428
927.302000,1.835325
930.302000,1.877455
933.300000,1.913893
936.300000,1.954639
939.300000,1.994151
942.301000,2.033058
945.301000,2.070891
948.299000,2.111157
951.299000,2.147640
954.299000,2.182335
957.299000,2.219145
960.299000,2.251348
963.298000,2.289320
966.298000,2.320442
969.298000,2.349347
972.298000,2.383056
975.298000,2.412373
978.296000,2.439991
981.297000,2.467088
984.297000,2.492652
987.297000,2.519603
990.297000,2.544745
993.297000,2.569605
996.295000,2.591358
999.295000,2.613890
1002.296000,2.634256
1005.296000,2.659834
1008.296000,2.673690
1011.294000,2.699709
1014.294000,2.720511
1017.294000,2.738997
1020.295000,2.760910
1023.295000,2.778040
1026.293000,2.795686
1029.293000,2.813245
1032.293000,2.827801
1035.293000,2.847141
1038.293000,2.865457
1041.294000,2.875254
1044.292000,2.887339
1047.292000,2.901134
1050.292000,2.911316
1053.292000,2.924832
1056.292000,2.928418
1059.291000,2.940031
1062.291000,2.948091
1065.291000,2.952779
1068.291000,2.959010
1071.290000,2.962743
1074.290000,2.962423
1077.289000,2.964021
1080.290000,2.963854
1083.290000,2.964065
1086.290000,2.961910
1089.288000,2.959251
1092.288000,2.954989
1095.288000,2.950967
1098.289000,2.945603
1101.289000,2.936842
1104.289000,2.925913
1107.287000,2.917527
1110.288000,2.907889
1113.288000,2.893438
1116.286000,2.879786
1119.287000,2.867378
1122.287000,2.852702
1125.287000,2.838768
1128.287000,2.825207
1131.285000,2.805388
1134.285000,2.786855
1137.286000,2.771788
1140.286000,2.752724
1143.286000,2.727779
1146.284000,2.712774
1149.284000,2.690527
1152.284000,2.676559
1155.285000,2.651413
1158.285000,2.629993
1161.283000,2.610644
1164.283000,2.588819
1167.283000,2.569564
1170.283000,2.547057
1173.283000,2.525286
1176.284000,2.502486
1179.282000,2.479740
1182.282000,2.459595
1185.282000,2.435446
1188.282000,2.410942
1191.282000,2.386911
1194.281000,2.358424
1197.281000,2.331796
1200.281000,2.307435
1203.281000,2.280345
1206.281000,2.255866
1209.279000,2.227018
1212.279000,2.195512
1215.280000,2.169784
1218.280000,2.137306
1221.280000,2.108982
1224.280000,2.079301
1227.278000,2.047645
1230.278000,2.018848
1233.279000,1.985547
1236.279000,1.954673
1239.279000,1.922749
1242.277000,1.890658
1245.277000,1.860243
1248.277000,1.823831
1251.277000,1.796724
1254.278000,1.768050
1257.276000,1.736030
1260.276000,1.705109
1263.276000,1.674976
1266.276000,1.645112
1269.276000,1.616301
1272.277000,1.589054
1275.275000,1.560523
1278.275000,1.529071
1281.274000,1.501495
1284.274000,1.475767
1287.274000,1.452107
1290.274000,1.422121
1293.275000,1.399402
1296.273000,1.370799
1299.273000,1.348886
1302.273000,1.323818
1305.273000,1.301759
1308.273000,1.279051
1311.274000,1.252719
1314.272000,1.229918
1317.272000,1.207043
1320.272000,1.188302
1323.272000,1.164707
1326.272000,1.147866
1329.270000,1.128336
1332.271000,1.109363
1335.271000,1.089640
1338.271000,1.069433
1341.271000,1.053561
1344.269000,1.037526
1347.269000,1.020658
1350.270000,1.007736
1353.270000,0.991558
1356.270000,0.984008
1359.270000,0.964886
1362.268000,0.952023
1365.268000,0.939972
1368.268000,0.930912
1371.269000,0.921030
1374.269000,0.911511
1377.267000,0.899630
1380.267000,0.889371
1383.268000,0.880821
1386.266000,0.881297
1389.267000,0.870905
1392.267000,0.864177
1395.267000,0.855706
1398.267000,0.861393
1401.265000,0.849899
1404.265000,0.857439
1407.265000,0.844817
1410.266000,0.848601
1413.266000,0.852745
1416.266000,0.841248
1419.264000,0.850406
1422.264000,0.844916
1425.264000,0.851776
1428.265000,0.856114
1431.263000,0.854370
1434.263000,0.865785
1437.263000,0.875837
1440.263000,0.874369
1443.263000,0.884676
1446.263000,0.892532
1449.262000,0.896962
1452.262000,0.909614
1455.262000,0.917018
1458.262000,0.927302
1461.262000,0.926666
1464.260000,0.947770
1467.261000,0.958335
1470.261000,0.963683
1473.261000,0.984212
1476.261000,0.996301
1479.261000,1.011629
1482.259000,1.011459
1485.259000,1.037971
1488.260000,1.050947
1491.260000,1.068764
1494.259000,1.081460
1497.259000,1.095670
1500.259000,1.114704
1503.259000,1.133578
1506.258000,1.147920
1509.258000,1.162908
1512.258000,1.186164
1515.258000,1.197069
1518.258000,1.223493
1521.256000,1.242136
1524.257000,1.259898
1527.257000,1.282443
1530.257000,1.305063
1533.257000,1.320942
1536.255000,1.342801
1539.255000,1.363364
1542.255000,1.386549
1545.256000,1.407289
1548.256000,1.426628
1551.254000,1.450826
1554.254000,1.474656
1557.254000,1.493458
1560.254000,1.515565
1563.255000,1.534796
1566.255000,1.562746
1569.253000,1.583129
1572.253000,1.607439
1575.253000,1.631238
1578.253000,1.649935
1581.253000,1.675068
1584.252000,1.694829
1587.252000,1.719380
1590.252000,1.739668
1593.252000,1.764246
1596.252000,1.788715
1599.250000,1.809442
1602.251000,1.828778
1605.251000,1.849807
1608.251000,1.873977
1611.251000,1.895489
1614.251000,1.916915
1617.249000,1.939760
1620.249000,1.959113
1623.250000,1.979775
1626.250000,2.000352
1629.250000,2.020650
1632.248000,2.040489
1635.248000,2.062076
1638.248000,2.075851
1641.249000,2.097695
1644.249000,2.112198
1647.247000,2.130011
1650.247000,2.145118
1653.248000,2.161989
1656.246000,2.176016
1659.246000,2.190460
1662.247000,2.206492
1665.247000,2.219128
1668.247000,2.232165
1671.245000,2.244107
1674.245000,2.253517
1677.245000,2.268270
1680.246000,2.278173
1683.246000,2.283741
1686.244000,2.299844
1689.244000,2.305471
1692.244000,2.313170
1695.244000,2.319752
1698.244000,2.333686
1701.245000,2.328441
1704.243000,2.340842
1707.243000,2.345543
1710.243000,2.351200
1713.243000,2.360079
1716.243000,2.362707
1719.242000,2.358533
1722.242000,2.365961
1725.242000,2.372984
1728.242000,2.363408
1731.242000,2.376944
1734.242000,2.366535
1737.240000,2.373300
1740.241000,2.368605
1743.241000,2.373738
1746.241000,2.361664
1749.241000,2.375754
1752.239000,2.369945
1755.239000,2.366181
1758.240000,2.360192
1761.240000,2.355840
1764.240000,2.349932
1767.238000,2.347355
1770.238000,2.340743
1773.238000,2.334138
1776.238000,2.325755
1779.239000,2.329481
1782.237000,2.320224
1785.237000,2.309737
1788.237000,2.303356
1791.237000,2.295541
1794.237000,2.280988
1797.238000,2.268671
1800.236000,2.259904
1803.236000,2.251083
1806.236000,2.239762
1809.236000,2.241143
1812.236000,2.216881
1815.234000,2.210024
1818.235000,2.191922
1821.235000,2.179235
1824.235000,2.169733
1827.235000,2.162040
1830.233000,2.139210
1833.233000,2.128029
1836.234000,2.113622
1839.234000,2.097668
1842.234000,2.080736
1845.234000,2.063742
1848.232000,2.048777
1851.232000,2.034075
1854.232000,2.015340
1857.233000,1.997143
1860.233000,1.977796
1863.231000,1.964420
1866.231000,1.944890
1869.231000,1.926339
1872.231000,1.907434
1875.232000,1.887459
1878.230000,1.869333
1881.230000,1.850541
1884.230000,1.833829
1887.230000,1.814048
1890.230000,1.799168
1893.229000,1.778850
1896.229000,1.760309
1899.229000,1.741714
1902.229000,1.723615
1905.229000,1.705989
1908.229000,1.687370
1911.227000,1.668394
1914.228000,1.650428
1917.228000,1.633356
1920.228000,1.617454
1923.228000,1.610818
1926.226000,1.582381
1929.226000,1.563623
1932.227000,1.545919
1935.227000,1.528153
1938.227000,1.514967
1941.225000,1.494257
1944.225000,1.478575
1947.225000,1.464134
1950.225000,1.449153
1953.226000,1.435569
1956.226000,1.419965
1959.224000,1.402237
1962.224000,1.388112
1965.224000,1.372135
1968.224000,1.359723
1971.225000,1.346449
1974.223000,1.335747
1977.223000,1.321075
1980.224000,1.309510
1983.222000,1.296337
1986.222000,1.284109
1989.222000,1.271572
1992.223000,1.261720
1995.223000,1.254578
1998.221000,1.237438
2001.221000,1.227634
2004.221000,1.215658
2007.221000,1.206629
2010.222000,1.196699
2013.220000,1.190094
2016.220000,1.182231
2019.220000,1.174378
2022.220000,1.166209
2025.220000,1.156908
2028.218000,1.161253
2031.219000,1.148872
2034.219000,1.150402
2037.219000,1.147815
2040.219000,1.132092
2043.219000,1.125358
2046.217000,1.122529
2049.218000,1.130304
2052.218000,1.114323
2055.218000,1.116380
2058.218000,1.116947
2061.216000,1.112940
2064.216000,1.113398
2067.216000,1.112861
2070.217000,1.104431
2073.217000,1.107694
2076.217000,1.115088
2079.215000,1.108323
2082.215000,1.118960
2085.215000,1.124307
2088.216000,1.116285
2091.216000,1.125110
2094.214000,1.125830
2097.214000,1.127778
2100.214000,1.129420
2103.214000,1.134686
2106.214000,1.133343
2109.213000,1.147376
2112.213000,1.150204
2115.213000,1.156531
2118.213000,1.160957
2121.213000,1.158176
2124.211000,1.174592
2127.212000,1.186164
2130.212000,1.182289
2133.212000,1.196614
2136.212000,1.199769
2139.212000,1.210456
2142.210000,1.223810
2145.210000,1.227185
2148.211000,1.237564
2151.211000,1.248894
2154.211000,1.258440
2157.209000,1.273788
2160.209000,1.283572
2163.209000,1.293617
2166.210000,1.305621
2169.210000,1.313688
2172.208000,1.327391
2175.208000,1.329852
2178.208000,1.343549
2181.208000,1.359275
2184.208000,1.372512
2187.209000,1.384043
2190.207000,1.396951
2193.207000,1.408720
2196.207000,1.418442
2199.207000,1.435569
2202.207000,1.446926
2205.206000,1.458359
2208.206000,1.472188
2211.206000,1.480962
2214.206000,1.492659
2217.206000,1.510269
2220.205000,1.523883
2223.205000,1.535323
2226.206000,1.547710
2229.204000,1.562593
2232.204000,1.575096
2235.204000,1.589357
2238.204000,1.601541
2241.204000,1.616590
2244.203000,1.630637
2247.203000,1.641512
2250.203000,1.655375
2253.203000,1.668000
2256.203000,1.684233
2259.201000,1.690668
2262.202000,1.704194
2265.202000,1.710269
2268.202000,1.730945
2271.202000,1.742455
2274.202000,1.755281
2277.200000,1.768767
2280.200000,1.778918
2283.201000,1.793365
2286.201000,1.804227
2289.201000,1.811498
2292.199000,1.824494
2295.199000,1.835260
2298.199000,1.848624
2301.200000,1.855841
2304.200000,1.858203
2307.198000,1.880460
2310.198000,1.891250
2313.198000,1.897063
2316.198000,1.908536
2319.198000,1.913411
2322.199000,1.913584
2325.197000,1.936442
2328.197000,1.943812
2331.197000,1.941599
2334.197000,1.949639
2337.197000,1.963182
2340.196000,1.970443
2343.196000,1.967557
2346.196000,1.982899
2349.196000,1.987376
2352.196000,1.991557
2355.196000,1.996721
2358.194000,2.008589
2361.195000,1.996541
2364.195000,2.009663
2367.195000,2.014296
2370.195000,2.018920
2373.193000,2.021619
2376.193000,2.023604
2379.194000,2.026905
2382.194000,2.023910
2385.193000,2.022499
2388.193000,2.024111
2391.193000,2.024723
2394.193000,2.023271
2397.191000,2.012661
2400.192000,2.013746
2403.192000,2.032504
2406.192000,2.018274
2409.192000,2.012474
2412.190000,2.025664
2415.191000,2.017580
2418.192000,2.009850
2421.190000,2.020069
2424.190000,2.015391
2427.190000,2.007752
2430.190000,1.997269
2433.190000,1.988093
2436.188000,1.982420
2439.189000,1.981543
2442.189000,1.972990
2445.189000,1.969570
2448.189000,1.976277
2451.187000,1.953150
2454.187000,1.946253
2457.188000,1.942449
2460.188000,1.938084
2463.188000,1.929174
2466.188000,1.915851
2469.186000,1.909831
2472.186000,1.905466
2475.186000,1.896780
2478.187000,1.894768
2481.187000,1.878750
2484.185000,1.872437
2487.185000,1.859529
2490.185000,1.849542
2493.185000,1.844453
2496.186000,1.832153
2499.184000,1.820004
2502.184000,1.814204
2505.184000,1.806229
2508.184000,1.794630
2511.184000,1.783388
2514.182000,1.778840
2517.183000,1.766146
2520.183000,1.752939
2523.183000,1.741745
2526.183000,1.731628
2529.183000,1.733844
2532.181000,1.711489
2535.182000,1.698368
2538.181000,1.697657
2541.181000,1.682013
2544.181000,1.664777
2547.181000,1.656316
2550.181000,1.655269
2553.181000,1.637024
2556.180000,1.627366
2559.180000,1.615098
2562.180000,1.604950
2565.180000,1.588592
2568.180000,1.581198
2571.178000,1.574338
2574.179000,1.563066
2577.178000,1.554135
2580.178000,1.541452
2583.178000,1.529170
2586.178000,1.520640
2589.178000,1.517659
2592.178000,1.501981
2595.177000,1.490691
2598.177000,1.482196
2601.177000,1.476298
2604.177000,1.465100
2607.177000,1.464723
2610.175000,1.446784
2613.176000,1.438662
2616.176000,1.432295
2619.175000,1.435715
2622.175000,1.411793
2625.175000,1.409315
2628.175000,1.407187
2631.176000,1.396084
2634.174000,1.386328
2637.174000,1.376778
2640.174000,1.383669
2643.174000,1.360016
2646.174000,1.357565
2649.174000,1.359475
2652.173000,1.347227
2655.173000,1.343158
2658.173000,1.333204
2661.173000,1.335472
2664.173000,1.319963
2667.171000,1.316333
2670.172000,1.313868
2673.172000,1.323047
2676.172000,1.310788
2679.172000,1.306257
2682.170000,1.314273
2685.170000,1.293560
2688.171000,1.290480
2691.170000,1.287114
2694.170000,1.293342
2697.170000,1.298360
2700.170000,1.283355
2703.170000,1.286819
2706.168000,1.277671
2709.169000,1.276134
2712.169000,1.269740
2715.169000,1.287498
2718.169000,1.276569
2721.167000,1.270722
2724.167000,1.274825
2727.167000,1.288263
2730.168000,1.283507
2733.168000,1.271915
2736.168000,1.284786
2739.166000,1.281896
2742.166000,1.284823
2745.166000,1.284215
2748.167000,1.287845
2751.167000,1.298275
2754.165000,1.289426
2757.165000,1.301763
2760.165000,1.301977
2763.165000,1.296072
2766.165000,1.303507
2769.164000,1.299563
2772.164000,1.312722
2775.164000,1.309745
2778.164000,1.321714
2781.164000,1.310982
2784.164000,1.325623
2787.163000,1.325909
2790.163000,1.332806
2793.163000,1.339337
2796.163000,1.346357
2799.163000,1.349556
2802.161000,1.351364
2805.161000,1.362052
2808.162000,1.366308
2811.162000,1.372281
2814.162000,1.381456
2817.160000,1.386627
2820.160000,1.383941
2823.160000,1.391906
2826.161000,1.403556
2829.161000,1.398375
2832.159000,1.416528
2835.159000,1.421485
2838.159000,1.423834
2841.159000,1.442565
2844.159000,1.449785
2847.160000,1.442670
2850.158000,1.461731
2853.158000,1.459606
2856.158000,1.475601
2859.158000,1.481720
2862.158000,1.487268
2865.157000,1.496338
2868.157000,1.500352
2871.157000,1.510877
2874.157000,1.518618
2877.157000,1.525604
2880.157000,1.528333
2883.155000,1.536380
2886.156000,1.546571
2889.156000,1.543695
2892.156000,1.562675
2895.156000,1.568464
2898.154000,1.577078
2901.155000,1.584571
2904.154000,1.594228
2907.154000,1.601293
2910.154000,1.609546
2913.154000,1.604185
2916.154000,1.619007
2919.154000,1.624497
2922.152000,1.633961
2925.154000,1.643459
2928.154000,1.645982
2931.152000,1.655018
2934.152000,1.656690
2937.152000,1.663516
2940.152000,1.656337
2943.153000,1.675581
2946.151000,1.686041
2949.151000,1.680116
2952.151000,1.687992
2955.151000,1.696426
2958.151000,1.701736
2961.149000,1.709678
2964.150000,1.713247
2967.150000,1.720923
2970.150000,1.708726
2973.150000,1.726342
2976.148000,1.733178
2979.148000,1.723877
2982.149000,1.737482
2985.150000,1.741072
2988.148000,1.735065
2991.148000,1.748139
2994.148000,1.741456
2997.148000,1.744597
3000.146000,1.758297
3003.147000,1.749655
3006.147000,1.751555
3009.147000,1.767281
3012.147000,1.756988
3015.147000,1.767210
3018.145000,1.769355
3021.146000,1.768838
3024.146000,1.767982
3027.146000,1.769851
3030.146000,1.769437
3033.144000,1.776511
3036.144000,1.772211
3039.145000,1.774560
3042.145000,1.773060
3045.145000,1.768359
3048.143000,1.776538
3051.143000,1.767128
3054.143000,1.770742
3057.143000,1.765636
3060.144000,1.762026
3063.144000,1.764409
3066.142000,1.759877
3069.142000,1.758691
3072.142000,1.748907
3075.142000,1.755920
3078.143000,1.754176
3081.142000,1.738148
3084.142000,1.739668
3087.140000,1.738893
3090.140000,1.740585
3093.140000,1.733939
3096.140000,1.738335
3099.141000,1.732954
3102.141000,1.722500
3105.139000,1.718115
3108.139000,1.720858
3111.139000,1.706706
3114.139000,1.701512
3117.140000,1.709446
3120.138000,1.690872
3123.138000,1.695311
3126.138000,1.685742
3129.138000,1.689135
3132.138000,1.682390
3135.136000,1.671192
3138.137000,1.665328
3141.137000,1.664291
3144.137000,1.661164
3147.137000,1.653073
3150.137000,1.655731
3153.135000,1.648548
3156.136000,1.643021
3159.136000,1.636208
3162.136000,1.631993
3165.136000,1.620092
3168.134000,1.611219
3171.134000,1.613891
3174.134000,1.609937
3177.135000,1.599593
3180.135000,1.601874
3183.133000,1.584016
3186.134000,1.576959
3189.134000,1.573077
3192.132000,1.564612
3195.133000,1.569168
3198.133000,1.561498
3201.133000,1.552024
3204.133000,1.556046
3207.131000,1.542978
3210.131000,1.533568
3213.131000,1.536053
3216.132000,1.523356
3219.132000,1.523414
3222.132000,1.516850
3225.130000,1.504874
3228.130000,1.499581
3231.130000,1.503340
3234.131000,1.488393
3237.131000,1.491089
3240.129000,1.482162
3243.129000,1.477086
3246.129000,1.474411
3249.129000,1.464253
3252.129000,1.460409
3255.128000,1.451652
3258.128000,1.448252
3261.128000,1.445431
3264.128000,1.439842
3267.128000,1.440835
3270.128000,1.443371
3273.127000,1.427910
3276.127000,1.431748
3279.127000,1.428763
3282.127000,1.424752
3285.127000,1.411388
3288.125000,1.408744
3291.125000,1.410246
3294.126000,1.399079
3297.126000,1.410403
3300.126000,1.395139
3303.124000,1.398192
3306.125000,1.393521
3309.125000,1.383084
3312.124000,1.390686
3315.124000,1.373814
3318.124000,1.371703
3321.124000,1.374780
3324.124000,1.369898
3327.122000,1.377516
3330.122000,1.361862
3333.123000,1.368497
3336.123000,1.361627
3339.123000,1.356113
3342.121000,1.360600
3345.121000,1.362630
3348.121000,1.363643
3351.122000,1.353489
3354.122000,1.350558
3357.122000,1.345928
3360.120000,1.358765
3363.120000,1.354039
3366.120000,1.346221
3369.121000,1.341812
3372.121000,1.357031
3375.119000,1.346853
3378.119000,1.350973
3381.119000,1.359516
3384.119000,1.348196
3387.119000,1.359914
3390.118000,1.347954
3393.118000,1.359938
3396.118000,1.361705
3399.118000,1.355787
3402.118000,1.364530
3405.118000,1.359778
3408.117000,1.356943
3411.117000,1.363255
3414.117000,1.366380
3417.117000,1.368766
3420.117000,1.360043
3423.115000,1.371193
3426.115000,1.372335
3429.116000,1.371526
3432.116000,1.380076
3435.116000,1.386739
3438.114000,1.375038
3441.115000,1.391158
3444.115000,1.391947
3447.114000,1.400548
3450.114000,1.394180
3453.114000,1.390472
3456.114000,1.391243
3459.114000,1.405575
3462.112000,1.407584
3465.112000,1.416440
3468.113000,1.409770
3471.113000,1.417881
3474.113000,1.412510
3477.113000,1.428393
3480.111000,1.426941
3483.111000,1.437789
3486.112000,1.427509
3489.112000,1.436718
3492.112000,1.444370
3495.110000,1.451655
3498.110000,1.454534
3501.110000,1.461194
3504.110000,1.465861
3507.111000,1.471382
3510.109000,1.473449
3513.109000,1.477127
3516.109000,1.467344
3519.109000,1.483872
3522.109000,1.475982
3525.110000,1.489280
3528.108000,1.497398
3531.108000,1.494760
3534.108000,1.496382
3537.108000,1.497884
3540.108000,1.500298
3543.106000,1.510197
3546.107000,1.520552
3549.107000,1.524135
3552.107000,1.527208
3555.107000,1.521596
3558.105000,1.537661
3561.105000,1.535006
3564.106000,1.545813
3567.106000,1.535595
3570.106000,1.546650
3573.104000,1.555998
3576.104000,1.560064
3579.104000,1.554839
3582.104000,1.559115
3585.105000,1.567410
3588.105000,1.568923
3591.104000,1.576041
3594.104000,1.582694
3597.102000,1.582160
3600.102000,1.585723
3603.104000,1.588120
3606.102000,1.582069
3609.102000,1.597366
3612.102000,1.589938
3615.102000,1.602081
3618.102000,1.604903
3621.100000,1.598464
3624.101000,1.608965
3627.101000,1.601881
3630.101000,1.616396
3633.101000,1.607928
3636.101000,1.612898
3639.099000,1.615713
3642.100000,1.614136
3645.100000,1.626285
3648.100000,1.613425
3651.100000,1.626282
3654.098000,1.618766
3657.098000,1.631663
3660.098000,1.620833
3663.099000,1.629019
3666.099000,1.631877
3669.098000,1.634580
3672.098000,1.639584
3675.098000,1.636450
3678.096000,1.626506
3681.097000,1.641189
3684.097000,1.629814
3687.097000,1.641308
3690.097000,1.632659
3693.095000,1.633706
3696.095000,1.639132
3699.095000,1.637867
3702.096000,1.635845
3705.096000,1.635991
3708.094000,1.645424
3711.094000,1.637493
3714.094000,1.642565
3717.094000,1.640539
3720.095000,1.633132
3723.095000,1.634713
3726.093000,1.639203
3729.093000,1.640271
3732.093000,1.632629
3735.093000,1.637153
3738.094000,1.630378
3741.092000,1.627672
3744.092000,1.631979
3747.092000,1.627489
3750.092000,1.628107
3753.092000,1.628026
3756.090000,1.620173
3759.091000,1.626459
3762.091000,1.624555
3765.091000,1.622526
3768.091000,1.615900
3771.091000,1.625517
3774.089000,1.612783
3777.090000,1.623141
3780.090000,1.608860
3783.090000,1.611552
3786.090000,1.613701
3789.088000,1.604291
3792.088000,1.610661
3795.088000,1.600596
3798.089000,1.605181
3801.089000,1.596710
3804.087000,1.603444
3807.087000,1.586501
3810.087000,1.591556
3813.087000,1.594759
3816.088000,1.582252
3819.088000,1.578414
3822.086000,1.585227
3825.086000,1.570626
3828.086000,1.564442
3831.086000,1.579730
3834.086000,1.564344
3837.085000,1.569593
3840.085000,1.561410
3843.085000,1.555984
3846.085000,1.551647
3849.085000,1.561240
3852.083000,1.551297
3855.084000,1.556491
3858.084000,1.535017
3861.084000,1.536631
3864.084000,1.538851
3867.084000,1.534796
3870.082000,1.535714
3873.082000,1.525128
3876.083000,1.523693
3879.083000,1.513022
3882.083000,1.509354
3885.081000,1.504408
3888.081000,1.517591
3891.081000,1.510071
3894.082000,1.502365
3897.082000,1.494974
3900.080000,1.501498
3903.080000,1.482209
3906.080000,1.493927
3909.080000,1.481920
3912.080000,1.472154
3915.079000,1.475713
3918.079000,1.469985
3921.079000,1.480465
3924.079000,1.461697
3927.079000,1.471090
3930.079000,1.465671
3933.078000,1.451166
3936.078000,1.458100
3939.078000,1.449857
3942.078000,1.446270
3945.078000,1.441348
3948.076000,1.440291
3951.076000,1.444057
3954.077000,1.426390
3957.077000,1.421689
3960.077000,1.420091
3963.075000,1.413775
3966.075000,1.413425
3969.075000,1.420737
3972.076000,1.409682
3975.076000,1.414441
3978.076000,1.410012
3981.074000,1.401316
3984.075000,1.408482
3987.073000,1.394347
3990.073000,1.395285
3993.074000,1.399429
3996.074000,1.383047
3999.074000,1.397801
4002.074000,1.379688
4005.072000,1.370714
4008.072000,1.373124
4011.073000,1.371904
4014.073000,1.381861
4017.073000,1.383683
4020.071000,1.368555
4023.071000,1.368212
4026.071000,1.372240
4029.071000,1.360125
4032.072000,1.371217
4035.070000,1.361287
4038.070000,1.367172
4041.070000,1.355433
4044.070000,1.358323
4047.070000,1.359360
4050.071000,1.360203
4053.069000,1.350242
4056.069000,1.354995
4059.069000,1.357837
4062.069000,1.360981
4065.069000,1.349355
4068.067000,1.359676
4071.068000,1.346649
4074.068000,1.346955
4077.068000,1.359315
4080.068000,1.352894
4083.066000,1.362113
4086.066000,1.351147
4089.067000,1.358122
4092.067000,1.356691
4095.067000,1.348573
4098.067000,1.364262
4101.065000,1.352700
4104.065000,1.363140
4107.065000,1.361022
4110.066000,1.361855
4113.066000,1.370143
4116.064000,1.359424
4119.064000,1.368803
4122.064000,1.369412
4125.064000,1.361749
4128.065000,1.376575
4131.063000,1.378526
4134.063000,1.379379
4137.063000,1.386695
4140.063000,1.377873
4143.063000,1.388017
4146.062000,1.382581
4149.062000,1.400221
4152.062000,1.400367
4155.062000,1.388758
4158.062000,1.400361
4161.062000,1.406123
4164.060000,1.398555
4167.061000,1.410107
4170.061000,1.407248
4173.061000,1.411140
4176.061000,1.422437
4179.059000,1.424249
4182.059000,1.425870
4185.060000,1.432516
4188.060000,1.432768
4191.060000,1.441480
4194.058000,1.446597
4197.058000,1.443908
4200.058000,1.447817
4203.058000,1.454993
4206.059000,1.466660
4209.059000,1.455313
4212.057000,1.467126
4215.057000,1.472443
4218.056000,1.475101
4221.056000,1.483022
4224.057000,1.486309
4227.057000,1.485830
4230.057000,1.494614
4233.057000,1.492921
4236.055000,1.505972
4239.055000,1.498394
4242.055000,1.517112
4245.056000,1.519352
4248.056000,1.512842
4251.054000,1.528405
4254.054000,1.522670
4257.054000,1.538770
4260.054000,1.538457
4263.055000,1.549050
4266.053000,1.543036
4269.053000,1.556885
4272.053000,1.562127
4275.053000,1.554509
4278.053000,1.565228
4281.051000,1.571333
4284.052000,1.573257
4287.052000,1.579573
4290.052000,1.585454
4293.052000,1.585951
4296.052000,1.593491
4299.050000,1.596469
4302.051000,1.607592
4305.051000,1.613082
4308.051000,1.605015
4311.051000,1.617702
4314.049000,1.614357
4317.049000,1.623355
4320.049000,1.631820
4323.050000,1.632350
4326.050000,1.626146
4329.050000,1.628675
4332.048000,1.640356
4335.049000,1.641726
4338.047000,1.651724
4341.048000,1.641355
4344.048000,1.655769
4347.047000,1.658675
4350.047000,1.653049
4353.047000,1.664189
4356.047000,1.658261
4359.047000,1.659811
4362.046000,1.674952
4365.046000,1.669210
4368.046000,1.676448
4371.046000,1.684018
4374.046000,1.670451
4377.046000,1.681690
4380.045000,1.678640
4383.045000,1.686112
4386.045000,1.682077
4389.045000,1.685001
4392.045000,1.682373
4395.044000,1.691963
4398.044000,1.692174
4401.045000,1.687013
4404.043000,1.697470
4407.043000,1.688859
4410.043000,1.691705
4413.043000,1.697409
4416.043000,1.695532
4419.042000,1.691385
4422.042000,1.695158
4425.042000,1.693714
4428.042000,1.689492
4431.042000,1.695189
4434.040000,1.691701
4437.040000,1.690566
4440.041000,1.687261
4443.041000,1.695033
4446.041000,1.686180
4449.039000,1.681047
4452.039000,1.689740
4455.039000,1.680225
4458.040000,1.686092
4461.040000,1.681472
4464.040000,1.683305
4467.038000,1.679167
4470.038000,1.669951
4473.038000,1.670094
4476.038000,1.676614
4479.039000,1.670978
4482.037000,1.667745
4485.037000,1.671604
4488.037000,1.665536
4491.037000,1.656969
4494.037000,1.667504
4497.036000,1.653359
4500.036000,1.658975
4503.036000,1.648504
4506.036000,1.645118
4509.036000,1.643612
4512.034000,1.647423
4515.035000,1.647709
4518.035000,1.632568
4521.035000,1.632170
4524.035000,1.630705
4527.035000,1.623862
4530.033000,1.622859
4533.033000,1.615941
4536.034000,1.610553
4539.034000,1.608571
4542.034000,1.603812
4545.032000,1.600021
4548.032000,1.603356
4551.032000,1.594045
4554.033000,1.584452
4557.033000,1.583476
4560.031000,1.583853
4563.031000,1.575497
4566.031000,1.566679
4569.031000,1.572336
4572.031000,1.564476
4575.032000,1.561539
4578.030000,1.556668
4581.030000,1.550515
4584.030000,1.545351
4587.030000,1.551433
4590.030000,1.538729
4593.029000,1.538029
4596.029000,1.533511
4599.029000,1.526535
4602.029000,1.525060
4605.029000,1.521969
4608.027000,1.513699
4611.027000,1.521361
4614.028000,1.500587
4617.028000,1.496796
4620.028000,1.504602
4623.026000,1.495151
4626.026000,1.485775
4629.026000,1.482859
4632.027000,1.489705
4635.027000,1.472004
4638.027000,1.469713
4641.025000,1.473514
4644.025000,1.465600
4647.025000,1.456537
4650.025000,1.451611
4653.026000,1.450829
4656.024000,1.449167
4659.024000,1.455568
4662.024000,1.439594
4665.024000,1.431687
4668.024000,1.446250
4671.025000,1.429745
4674.023000,1.423021
4677.023000,1.430082
4680.023000,1.415070
4683.023000,1.413741
4686.023000,1.410586
4689.021000,1.410284
4692.022000,1.407044
4695.022000,1.406724
4698.022000,1.399691
4701.022000,1.407095
4704.020000,1.398001
4707.020000,1.392392
4710.021000,1.397876
4713.021000,1.389931
4716.021000,1.386015
4719.021000,1.395428
4722.019000,1.395248
4725.019000,1.384614
4728.019000,1.384567
4731.020000,1.378172
4734.020000,1.381249
4737.018000,1.371054
4740.018000,1.369422
4743.017000,1.378414
4746.017000,1.369388
4749.018000,1.378903
4752.018000,1.366448
4755.018000,1.369725
4758.018000,1.361559
4761.016000,1.362015
4764.016000,1.374399
4767.016000,1.360074
4770.017000,1.363089
4773.017000,1.372941
4776.015000,1.367879
4779.015000,1.366869
4782.015000,1.364214
4785.015000,1.376146
4788.016000,1.374946
4791.014000,1.362990
4794.014000,1.368093
4797.014000,1.359907
4800.014000,1.364020
4803.014000,1.367719
4806.014000,1.360407
4809.013000,1.373029
4812.013000,1.372465
4815.013000,1.369187
4818.013000,1.361569
4821.013000,1.378121
4824.011000,1.368691
4827.012000,1.371788
4830.012000,1.373454
4833.012000,1.370214
4836.012000,1.376561
4839.010000,1.370782
4842.010000,1.380841
4845.010000,1.374535
4848.011000,1.388615
4851.011000,1.375721
4854.009000,1.397230
4857.009000,1.390699
4860.009000,1.381582
4863.009000,1.400452
4866.010000,1.400894
4869.010000,1.391692
4872.008000,1.403152
4875.008000,1.406201
4878.008000,1.397852
4881.008000,1.408145
4884.009000,1.397784
4887.007000,1.410273
4890.007000,1.401911
4893.007000,1.410726
4896.007000,1.412466
4899.007000,1.417467
4902.007000,1.418741
4905.006000,1.414910
4908.006000,1.415777
4911.006000,1.415209
4914.006000,1.425809
4917.006000,1.426832
4920.004000,1.425146
4923.005000,1.437812
4926.005000,1.430650
4929.005000,1.436374
4932.005000,1.433478
4935.003000,1.443602
4938.003000,1.440206
4941.003000,1.450900
4944.004000,1.451570
4947.004000,1.454483
4950.004000,1.443333
4953.002000,1.454069
4956.002000,1.449085
4959.002000,1.462527
4962.003000,1.451675
4965.003000,1.468105
4968.001000,1.457380
4971.001000,1.476464
4974.001000,1.473225
4977.000000,1.466031
4980.000000,1.475886
4983.001000,1.473697
4986.001000,1.479415
4989.001000,1.478181
4992.000000,1.478269
4995.000000,1.486880
4997.998000,1.489161
5000.999000,1.482573
5003.999000,1.489386
5006.999000,1.489100
5009.999000,1.499785
5012.999000,1.490728
5015.997000,1.498064
5018.997000,1.496915
5021.998000,1.494475
5024.998000,1.501444
5027.998000,1.511258
5030.996000,1.502433
5033.996000,1.503143
5036.996000,1.503453
5039.997000,1.512308
5042.997000,1.505241
5045.995000,1.510197
5048.995000,1.513569
5051.995000,1.505802
5054.995000,1.512798
5057.995000,1.506590
5060.996000,1.522704
5063.994000,1.511462
5066.994000,1.520793
5069.994000,1.506862
5072.994000,1.521857
5075.994000,1.522751
5078.993000,1.513926
5081.993000,1.523605
5084.993000,1.517129
5087.993000,1.525094
5090.993000,1.528779
5093.991000,1.526953
5096.991000,1.519026
5099.992000,1.513015
5102.992000,1.520650
5105.992000,1.517190
5108.992000,1.527341
5111.990000,1.523676
5114.990000,1.515725
5117.991000,1.524081
5120.991000,1.524206
5123.991000,1.516292
5126.989000,1.525916
5129.989000,1.510782
5132.989000,1.519845
5135.989000,1.514147
5138.990000,1.508657
5141.988000,1.518278
5144.988000,1.516775
5147.988000,1.507127
5150.988000,1.521215
5153.988000,1.509300
5156.989000,1.521592
5159.987000,1.517278
5162.987000,1.505564
5165.986000,1.517016
5168.986000,1.502511
5171.986000,1.506730
5174.986000,1.507189
5177.987000,1.507107
5180.987000,1.513291
5183.985000,1.505271
5186.986000,1.498350
5189.984000,1.505112
5192.984000,1.492411
5195.985000,1.500471
5198.985000,1.495392
5201.985000,1.499482
5204.983000,1.492068
5207.983000,1.498166
5210.983000,1.484477
5213.983000,1.499353
5216.984000,1.490168
5219.984000,1.488046
5222.982000,1.491133
5225.982000,1.482118
5228.982000,1.481173
5231.982000,1.491517
5234.982000,1.478072
5237.982000,1.487037
5240.982000,1.476631
5243.982000,1.480530
5246.980000,1.470933
5249.980000,1.481196
5252.981000,1.472657
5255.981000,1.467792
5258.981000,1.465171
5261.979000,1.476383
5264.979000,1.462258
5267.979000,1.460446
5270.979000,1.454861
5273.980000,1.469261
5276.978000,1.459246
5279.978000,1.451662
5282.978000,1.463798
5285.978000,1.451733
5288.978000,1.467772
5291.979000,1.452763
5294.977000,1.455180
5297.977000,1.449704
5300.977000,1.450275
5303.977000,1.451805
5306.977000,1.445077
5309.975000,1.440515
5312.976000,1.447175
5315.976000,1.436354
5318.976000,1.433648
5321.976000,1.440719
5324.974000,1.437061
5327.974000,1.433641
5330.975000,1.444118
5333.975000,1.429344
5336.974000,1.433199
5339.974000,1.434447
5342.974000,1.420754
5345.974000,1.424599
5348.972000,1.426689
5351.973000,1.419197
5354.973000,1.431217
5357.973000,1.422138
5360.973000,1.425347
5363.971000,1.410811
5366.971000,1.410715
5369.972000,1.412976
5372.972000,1.418425
5375.972000,1.405739
5378.972000,1.410804
5381.970000,1.405664
5384.970000,1.411660
5387.970000,1.415036
5390.971000,1.407061
5393.971000,1.406786
5396.969000,1.400031
5399.969000,1.398525
5402.969000,1.397641
5405.969000,1.400908
5408.970000,1.393443
5411.968000,1.409475
5414.968000,1.408166
5417.968000,1.392484
5420.968000,1.401146
5423.968000,1.389938
5426.968000,1.388782
5429.967000,1.384213
5432.967000,1.402948
5435.967000,1.385434
5438.967000,1.391383
5441.967000,1.393055
5444.965000,1.380769
5447.966000,1.380188
5450.966000,1.388680
5453.966000,1.400585
5456.966000,1.399110
5459.964000,1.381935
5462.964000,1.396723
5465.964000,1.387980
5468.965000,1.394279
5471.965000,1.393932
5474.965000,1.382275
5477.963000,1.384658
5480.963000,1.388500
5483.963000,1.399375
5486.964000,1.387487
5489.964000,1.382044
5492.962000,1.387813
5495.962000,1.394741
5498.962000,1.382360
5501.962000,1.399776
5504.962000,1.390308
5507.961000,1.395231
5510.961000,1.401125
5513.962000,1.386008
5516.960000,1.399259
5519.960000,1.391869
5522.960000,1.390506
5525.961000,1.404001
5528.961000,1.390081
5531.959000,1.406422
5534.959000,1.398063
5537.959000,1.399280
5540.959000,1.390730
5543.959000,1.395894
5546.960000,1.410001
5549.958000,1.408111
5552.958000,1.401513
5555.958000,1.412262
5558.958000,1.402999
5561.958000,1.417120
5564.957000,1.410447
5567.957000,1.413346
5570.957000,1.408451
5573.957000,1.408322
5576.957000,1.413751
5579.956000,1.415488
5582.956000,1.419639
5585.957000,1.412357
5588.955000,1.428481
5591.955000,1.421077
5594.955000,1.422148
5597.955000,1.430932
5600.955000,1.421553
5603.954000,1.426757
5606.954000,1.434631
5609.954000,1.429096
5612.954000,1.434464
5615.954000,1.437020
5618.952000,1.439906
5621.954000,1.443075
5624.954000,1.442038
5627.952000,1.435865
5630.952000,1.446331
5633.952000,1.437962
5636.952000,1.441406
5639.952000,1.437700
5642.951000,1.452036
5645.951000,1.441018
5648.951000,1.447518
5651.951000,1.448154
5654.950000,1.456588
5657.950000,1.453280
5660.951000,1.452835
5663.951000,1.456758
5666.949000,1.449785
5669.949000,1.463699
5672.949000,1.455517
5675.949000,1.462353
5678.949000,1.456492
5681.950000,1.463812
5684.948000,1.469716
5687.948000,1.463798
5690.948000,1.465015
5693.948000,1.473955
5696.948000,1.470471
5699.947000,1.469781
5702.947000,1.476811
5705.947000,1.469189
5708.947000,1.481540
5711.947000,1.475023
5714.945000,1.473418
5717.945000,1.482005
5720.946000,1.476457
5723.946000,1.480683
5726.946000,1.485602
5729.946000,1.475128
5732.944000,1.478283
5735.944000,1.482774
5738.945000,1.486207
5741.945000,1.479126
5744.945000,1.492044
5747.943000,1.493723
5750.943000,1.481829
5753.943000,1.489324
5756.943000,1.485901
5759.944000,1.494046
5762.942000,1.489406
5765.942000,1.493176
5768.942000,1.489205
5771.942000,1.492340
5774.942000,1.482162
5777.942000,1.491959
5780.942000,1.487886
5783.942000,1.499635
5786.940000,1.489715
5789.940000,1.499744
5792.940000,1.484592
5795.940000,1.496066
5798.941000,1.488186
5801.939000,1.498510
5804.939000,1.482281
5807.939000,1.487326
5810.939000,1.495025
5813.939000,1.494046
5816.940000,1.493747
5819.938000,1.482502
5822.938000,1.482696
5825.938000,1.494821
5828.938000,1.492860
5831.938000,1.490140
5834.936000,1.481356
5837.937000,1.488784
5840.937000,1.488420
5843.937000,1.487030
5846.937000,1.478524
5849.935000,1.484028
5852.935000,1.479704
5855.936000,1.483066
5858.936000,1.476046
5861.936000,1.483940
5864.936000,1.481696
5867.934000,1.476107
5870.934000,1.468900
5873.934000,1.482332
5876.935000,1.468340
5879.935000,1.465049
5882.933000,1.480255
5885.933000,1.473782
5888.933000,1.472939
5891.933000,1.461673
5894.934000,1.463998
5897.932000,1.465168
5900.932000,1.468278
5903.932000,1.452872
5906.932000,1.457264
5909.932000,1.466959
5912.930000,1.461819
5915.931000,1.453521
5918.931000,1.449714
5921.931000,1.456003
5924.931000,1.461935
5927.931000,1.447147
5930.929000,1.456955
5933.930000,1.447831
5936.930000,1.450078
5939.930000,1.444006
5942.930000,1.449105
5945.928000,1.444526
5948.928000,1.445658
5951.928000,1.440909
5954.929000,1.441871
5957.929000,1.433012
5960.929000,1.439233
5963.927000,1.425190
5966.927000,1.439638
5969.927000,1.427128
5972.928000,1.421628
5975.928000,1.423161
5978.926000,1.432934
5981.926000,1.426999
5984.926000,1.433743
5987.926000,1.420764
5990.927000,1.431986
5993.925000,1.413442
5996.925000,1.415967
5999.925000,1.428158
6002.925000,1.412514
6005.925000,1.411990
6008.925000,1.421026
6011.924000,1.407353
6014.924000,1.416178
6017.924000,1.409882
6020.924000,1.417365
6023.924000,1.400680
6026.922000,1.411065
6029.923000,1.415148
6032.923000,1.401516
6035.923000,1.408159
6038.923000,1.399521
6041.921000,1.411320
6044.921000,1.395612
6047.921000,1.403607
6050.922000,1.397984
6053.922000,1.395333
6056.921000,1.404005
6059.921000,1.392654
6062.921000,1.399273
6065.919000,1.397743
6068.920000,1.405555
6071.920000,1.391104
6074.920000,1.396795
6077.920000,1.396944
6080.918000,1.394357
6083.918000,1.391124
6086.918000,1.394106
6089.919000,1.401153
6092.919000,1.387908
6095.919000,1.399813
6098.917000,1.393929
6101.917000,1.402118
6104.917000,1.392848
6107.918000,1.393582
6110.918000,1.398467
6113.916000,1.389659
6116.916000,1.398732
6119.916000,1.401316
6122.916000,1.395894
6125.916000,1.390220
6128.915000,1.407411
6131.915000,1.393405
6134.915000,1.408574
6137.915000,1.392668
6140.915000,1.407445
6143.915000,1.394279
6146.914000,1.400588
6149.914000,1.408570
6152.914000,1.398419
6155.914000,1.398749
6158.914000,1.411310
6161.912000,1.401421
6164.912000,1.412109
6167.913000,1.401673
6170.913000,1.407391
6173.913000,1.417691
6176.911000,1.403383
6179.911000,1.411943
6182.911000,1.419415
6185.912000,1.420880
6188.912000,1.420305
6191.910000,1.419700
6194.910000,1.411613
6197.910000,1.412269
6200.910000,1.413833
6203.910000,1.423123
6206.911000,1.418605
6209.909000,1.425442
6212.909000,1.411497
6215.909000,1.411960
6218.909000,1.411987
6221.909000,1.428780
6224.908000,1.425132
6227.908000,1.425530
6230.908000,1.422107
6233.908000,1.428328
6236.908000,1.436599
6239.906000,1.426285
6242.906000,1.431078
6245.907000,1.424626
6248.906000,1.438676
6251.906000,1.433655
6254.906000,1.438173
6257.906000,1.438890
6260.906000,1.440627
6263.907000,1.437068
6266.905000,1.443180
6269.905000,1.449588
6272.905000,1.438649
6275.905000,1.442844
6278.905000,1.451737
6281.903000,1.451301
6284.904000,1.450520
6287.904000,1.443714
6290.904000,1.457417
6293.904000,1.446063
6296.902000,1.461112
6299.902000,1.458638
6302.903000,1.448198
6305.903000,1.459834
6308.903000,1.450992
6311.901000,1.458206
6314.901000,1.458845
6317.901000,1.451529
6320.901000,1.463407
6323.902000,1.463659
6326.902000,1.459470
6329.900000,1.460585
6332.900000,1.468826
6335.900000,1.458726
6338.900000,1.472691
6341.901000,1.457856
6344.899000,1.468578
6347.899000,1.479480
6350.899000,1.463947
6353.899000,1.474860
6356.899000,1.463115
6359.897000,1.469298
6362.898000,1.467823
6365.898000,1.475441
6368.898000,1.470787
6371.898000,1.470804
6374.898000,1.476621
6377.896000,1.467262
6380.897000,1.468459
6383.897000,1.476978
6386.897000,1.469186
6389.897000,1.474683
6392.895000,1.479983
6395.895000,1.468261
6398.896000,1.479068
6401.896000,1.477175
6404.896000,1.468472
6407.894000,1.478235
6410.894000,1.474278
6413.894000,1.479299
6416.894000,1.470947
6419.895000,1.478569
6422.893000,1.469750
6425.893000,1.477314
6428.893000,1.482277
6431.893000,1.471059
6434.893000,1.475421
6437.894000,1.479595
6440.892000,1.466218
6443.892000,1.467779
6446.892000,1.474061
6449.892000,1.482155
6452.892000,1.481788
6455.890000,1.467966
6458.891000,1.464233
6461.891000,1.475393
6464.891000,1.463716
6467.891000,1.470658
6470.889000,1.468771
6473.889000,1.465477
6476.890000,1.476906
6479.890000,1.467051
6482.890000,1.467809
6485.890000,1.471069
6488.888000,1.457013
6491.888000,1.469659
6494.888000,1.462210
6497.889000,1.453164
6500.889000,1.467867
6503.887000,1.452950
6506.887000,1.468656
6509.887000,1.460759
6512.887000,1.459872
6515.888000,1.456843
6518.886000,1.456611
6521.886000,1.460392
6524.886000,1.449391
6527.886000,1.462649
6530.886000,1.458230
6533.884000,1.448534
6536.885000,1.448405
6539.885000,1.450812
6542.885000,1.457903
6545.885000,1.450183
6548.885000,1.439798
6551.883000,1.440138
6554.884000,1.438305
6557.884000,1.438537
6560.884000,1.436847
6563.884000,1.434495
6566.882000,1.439526
6569.882000,1.442867
6572.883000,1.430708
6575.882000,1.424085
6578.882000,1.424276
6581.882000,1.435773
6584.882000,1.425367
6587.882000,1.441188
6590.880000,1.434131
6593.881000,1.426727
6596.881000,1.419367
6599.881000,1.415359
6602.881000,1.414441
6605.881000,1.426655
6608.879000,1.412126
6611.879000,1.414210
6614.880000,1.413275
6617.880000,1.422634
6620.880000,1.414693
6623.878000,1.418300
6626.878000,1.410018
6629.878000,1.413088
6632.879000,1.409566
6635.879000,1.411140
6638.877000,1.411895
6641.877000,1.408614
6644.877000,1.398698
6647.877000,1.408584
6650.877000,1.400724
6653.876000,1.410882
6656.876000,1.406826
6659.876000,1.394496
6662.876000,1.394432
6665.876000,1.405830
6668.876000,1.395924
6671.875000,1.407166
6674.875000,1.398212
6677.875000,1.398372
6680.875000,1.394004
6683.875000,1.397287
6686.873000,1.389611
6689.874000,1.395346
6692.874000,1.390383
6695.874000,1.383407
6698.874000,1.384251
6701.872000,1.394048
6704.872000,1.387715
6707.872000,1.396213
6710.873000,1.398634
6713.873000,1.379882
6716.873000,1.391417
6719.871000,1.380035
6722.871000,1.389642
6725.871000,1.391369
6728.871000,1.386443
6731.872000,1.393256
6734.870000,1.377166
6737.870000,1.391879
6740.870000,1.394911
6743.870000,1.373495
6746.870000,1.388095
6749.871000,1.380477
6752.869000,1.396686
6755.869000,1.378886
6758.869000,1.377839
6761.869000,1.394520
6764.867000,1.382320
6767.869000,1.397148
6770.869000,1.393504
6773.867000,1.386678
6776.867000,1.380266
6779.867000,1.388836
6782.867000,1.388459
6785.867000,1.379607
6788.866000,1.394395
6791.866000,1.386474
6794.866000,1.394680
6797.866000,1.392695
6800.866000,1.395129
6803.866000,1.389938
6806.865000,1.401639
6809.865000,1.401414
6812.865000,1.396883
6815.865000,1.398552
6818.865000,1.397791
6821.863000,1.403964
6824.863000,1.405127
6827.864000,1.408139
6830.864000,1.400915
6833.864000,1.403515
6836.862000,1.410773
6839.862000,1.411596
6842.862000,1.403811
6845.863000,1.413870
6848.863000,1.415271
6851.863000,1.408900
6854.861000,1.416437
6857.861000,1.413282
6860.861000,1.413618
6863.861000,1.408699
6866.862000,1.415594
6869.860000,1.424337
6872.860000,1.414723
6875.860000,1.421940
6878.860000,1.427339
6881.860000,1.416947
6884.859000,1.428216
6887.859000,1.422943
6890.859000,1.423212
6893.859000,1.421702
6896.859000,1.431680
6899.859000,1.427505
6902.857000,1.425177
6905.858000,1.435882
6908.858000,1.429110
6911.858000,1.437959
6914.858000,1.431996
6917.856000,1.441528
6920.856000,1.435246
6923.857000,1.443473
6926.857000,1.433791
6929.857000,1.447559
6932.855000,1.439159
6935.855000,1.445947
6938.855000,1.442177
6941.855000,1.442052
6944.856000,1.449520
6947.856000,1.442167
6950.854000,1.452393
6953.854000,1.447396
6956.854000,1.449537
6959.854000,1.446736
6962.855000,1.439448
6965.853000,1.450669
6968.853000,1.439308
6971.853000,1.450163
6974.853000,1.444285
6977.853000,1.452454
6980.851000,1.445669
6983.852000,1.449762
6986.852000,1.453246
6989.852000,1.450849
6992.852000,1.456594
6995.852000,1.447528
6998.850000,1.449690
7001.851000,1.441399
7004.851000,1.445580
7007.851000,1.451233
7010.851000,1.446488
7013.849000,1.453120
7016.849000,1.447701
7019.849000,1.459212
7022.850000,1.448086
7025.850000,1.460738
7028.848000,1.445461
7031.848000,1.453994
7034.848000,1.445482
7037.848000,1.456295
7040.849000,1.450346
7043.847000,1.451689
7046.847000,1.441922
7049.847000,1.452145
7052.847000,1.446756
7055.847000,1.442568
7058.847000,1.436330
7061.846000,1.452505
7064.846000,1.447253
7067.846000,1.438146
7070.846000,1.451873
7073.846000,1.436266
7076.844000,1.444441
7079.845000,1.439713
7082.845000,1.438547
7085.845000,1.438397
7088.845000,1.449058
7091.845000,1.439288
7094.843000,1.447926
7097.843000,1.436738
7100.844000,1.436306
7103.844000,1.446080
7106.844000,1.431472
7109.842000,1.439556
7112.842000,1.426995
7115.842000,1.437387
7118.843000,1.425806
7121.843000,1.438302
7124.841000,1.423463
7127.841000,1.439825
7130.841000,1.433699
7133.841000,1.422226
7136.842000,1.434590
7139.840000,1.428875
7142.840000,1.429015
7145.840000,1.419955
7148.840000,1.422715
7151.840000,1.425330
7154.840000,1.428093
7157.839000,1.416882
7160.839000,1.424534
7163.839000,1.414788
7166.839000,1.414564
7169.839000,1.424983
7172.837000,1.411511
7175.838000,1.412653
7178.838000,1.414353
7181.838000,1.411256
7184.838000,1.420887
7187.836000,1.411021
7190.836000,1.409492
7193.836000,1.401826
7196.837000,1.405422
7199.837000,1.416712
7202.836000,1.404137
7205.835000,1.410338
