Time(s),Ch 1  (V),
0.000000,4.112687
2.000000E-7,4.118625
4.000000E-7,4.076750
6.000000E-7,4.053312
8.000000E-7,4.051906
1.000000E-6,4.013781
1.200000E-6,4.008000
1.400000E-6,3.977531
1.600000E-6,3.973781
1.800000E-6,3.960344
2.000000E-6,3.941281
2.200000E-6,3.914719
2.400000E-6,3.884094
2.600000E-6,3.876594
2.800000E-6,3.865188
3.000000E-6,3.834875
3.200000E-6,3.817219
3.400000E-6,3.798625
3.600000E-6,3.773625
3.800000E-6,3.756438
4.000000E-6,3.726281
4.200000E-6,3.710969
4.400000E-6,3.701437
4.600000E-6,3.683781
4.800000E-6,3.640500
5.000000E-6,3.629094
5.200000E-6,3.617375
5.400000E-6,3.602375
5.600000E-6,3.581438
5.800000E-6,3.556437
6.000000E-6,3.546906
6.200000E-6,3.533937
6.400000E-6,3.516281
6.600000E-6,3.490344
6.800000E-6,3.489875
7.000000E-6,3.474406
7.200000E-6,3.457844
7.400000E-6,3.424875
7.600000E-6,3.409875
7.800000E-6,3.383313
8.000000E-6,3.368000
8.200000E-6,3.354563
8.400000E-6,3.337531
8.600000E-6,3.341438
8.800000E-6,3.291906
9.000000E-6,3.280188
9.200000E-6,3.265188
9.400000E-6,3.244250
9.600000E-6,3.223156
9.800000E-6,3.215500
1.000000E-5,3.196906
1.020000E-5,3.184875
1.040000E-5,3.168156
1.060000E-5,3.145188
1.080000E-5,3.141281
1.100000E-5,3.122219
1.120000E-5,3.104875
1.140000E-5,3.093938
1.160000E-5,3.061281
1.180000E-5,3.061594
1.200000E-5,3.040188
1.220000E-5,3.017688
1.240000E-5,2.990656
1.260000E-5,2.996594
1.280000E-5,2.970031
1.300000E-5,2.962063
1.320000E-5,2.945187
1.340000E-5,2.931906
1.360000E-5,2.920500
1.380000E-5,2.878313
1.400000E-5,2.861281
1.420000E-5,2.853625
1.440000E-5,2.853938
1.460000E-5,2.823313
1.480000E-5,2.811750
1.500000E-5,2.804250
1.520000E-5,2.790656
1.540000E-5,2.785188
1.560000E-5,2.768156
1.580000E-5,2.752531
1.600000E-5,2.747063
1.620000E-5,2.714719
1.640000E-5,2.712844
1.660000E-5,2.692063
1.680000E-5,2.695500
1.700000E-5,2.674719
1.720000E-5,2.662844
1.740000E-5,2.644406
1.760000E-5,2.628938
1.780000E-5,2.615656
1.800000E-5,2.585031
1.820000E-5,2.583312
1.840000E-5,2.560344
1.860000E-5,2.554875
1.880000E-5,2.527844
1.900000E-5,2.520188
1.920000E-5,2.503313
1.940000E-5,2.497688
1.960000E-5,2.488000
1.980000E-5,2.478625
2.000000E-5,2.459250
2.020000E-5,2.457375
2.040000E-5,2.440500
2.060000E-5,2.427062
2.080000E-5,2.411750
2.100000E-5,2.413781
2.120000E-5,2.396594
2.140000E-5,2.379406
2.160000E-5,2.377375
2.180000E-5,2.352844
2.200000E-5,2.343313
2.220000E-5,2.325969
2.240000E-5,2.324406
2.260000E-5,2.308937
2.280000E-5,2.285969
2.300000E-5,2.288156
2.320000E-5,2.266906
2.340000E-5,2.255656
2.360000E-5,2.246125
2.380000E-5,2.238313
2.400000E-5,2.223469
2.420000E-5,2.222844
2.440000E-5,2.206437
2.460000E-5,2.181281
2.480000E-5,2.171750
2.500000E-5,2.164250
2.520000E-5,2.152687
2.540000E-5,2.139563
2.560000E-5,2.122219
2.580000E-5,2.124094
2.600000E-5,2.118469
2.620000E-5,2.103312
2.640000E-5,2.093781
2.660000E-5,2.086281
2.680000E-5,2.068469
2.700000E-5,2.051906
2.720000E-5,2.053937
2.740000E-5,2.036594
2.760000E-5,2.028625
2.780000E-5,2.009875
2.800000E-5,2.008156
2.820000E-5,1.991125
2.840000E-5,1.990656
2.860000E-5,1.960187
2.880000E-5,1.949406
2.900000E-5,1.941125
2.920000E-5,1.939406
2.940000E-5,1.926125
2.960000E-5,1.916594
2.980000E-5,1.897531
3.000000E-5,1.903000
3.020000E-5,1.893625
3.040000E-5,1.871125
3.060000E-5,1.870812
3.080000E-5,1.859406
3.100000E-5,1.852062
3.120000E-5,1.834406
3.140000E-5,1.830812
3.160000E-5,1.833000
3.180000E-5,1.815344
3.200000E-5,1.798625
3.220000E-5,1.792844
3.240000E-5,1.787062
3.260000E-5,1.765969
3.280000E-5,1.770031
3.300000E-5,1.769875
3.320000E-5,1.745031
3.340000E-5,1.739563
3.360000E-5,1.725969
3.380000E-5,1.718469
3.400000E-5,1.707219
3.420000E-5,1.703156
3.440000E-5,1.682531
3.460000E-5,1.678469
3.480000E-5,1.683938
3.500000E-5,1.668937
3.520000E-5,1.661281
3.540000E-5,1.657531
3.560000E-5,1.644094
3.580000E-5,1.640500
3.600000E-5,1.634563
3.620000E-5,1.613781
3.640000E-5,1.627375
3.660000E-5,1.607687
3.680000E-5,1.602219
3.700000E-5,1.593156
3.720000E-5,1.571281
3.740000E-5,1.564563
3.760000E-5,1.562063
3.780000E-5,1.543313
3.800000E-5,1.539719
3.820000E-5,1.529719
3.840000E-5,1.516594
3.860000E-5,1.518469
3.880000E-5,1.503156
3.900000E-5,1.497531
3.920000E-5,1.486125
3.940000E-5,1.470656
3.960000E-5,1.470969
3.980000E-5,1.470656
4.000000E-5,1.457688
4.020000E-5,1.455656
4.040000E-5,1.451750
4.060000E-5,1.430969
4.080000E-5,1.442219
4.100000E-5,1.423156
4.120000E-5,1.423469
4.140000E-5,1.415500
4.160000E-5,1.409875
4.180000E-5,1.391125
4.200000E-5,1.383156
4.220000E-5,1.375344
4.240000E-5,1.379406
4.260000E-5,1.356750
4.280000E-5,1.368156
4.300000E-5,1.358156
4.320000E-5,1.345187
4.340000E-5,1.341594
4.360000E-5,1.341281
4.380000E-5,1.316437
4.400000E-5,1.328313
4.420000E-5,1.312375
4.440000E-5,1.295656
4.460000E-5,1.291906
4.480000E-5,1.284094
4.500000E-5,1.282375
4.520000E-5,1.267062
4.540000E-5,1.269094
4.560000E-5,1.263156
4.580000E-5,1.266906
4.600000E-5,1.255656
4.620000E-5,1.236438
4.640000E-5,1.238469
4.660000E-5,1.229250
4.680000E-5,1.220969
4.700000E-5,1.213781
4.720000E-5,1.215812
4.740000E-5,1.208156
4.760000E-5,1.196125
4.780000E-5,1.187219
4.800000E-5,1.192844
4.820000E-5,1.179563
4.840000E-5,1.173469
4.860000E-5,1.160500
4.880000E-5,1.168156
4.900000E-5,1.158313
4.920000E-5,1.145031
4.940000E-5,1.137531
4.960000E-5,1.134094
4.980000E-5,1.131750
5.000000E-5,1.120344
5.020000E-5,1.110812
5.040000E-5,1.114406
5.060000E-5,1.105500
5.080000E-5,1.101281
5.100000E-5,1.087687
5.120000E-5,1.074875
5.140000E-5,1.105031
5.160000E-5,1.078625
5.180000E-5,1.061125
5.200000E-5,1.063313
5.220000E-5,1.057531
5.240000E-5,1.048000
5.260000E-5,1.048000
5.280000E-5,1.050188
5.300000E-5,1.036281
5.320000E-5,1.030969
5.340000E-5,1.027062
5.360000E-5,0.994563
5.380000E-5,1.000344
5.400000E-5,1.011750
5.420000E-5,1.002375
5.440000E-5,1.000500
5.460000E-5,0.992531
5.480000E-5,0.985656
5.500000E-5,0.988469
5.520000E-5,0.983469
5.540000E-5,0.967844
5.560000E-5,0.975656
5.580000E-5,0.962531
5.600000E-5,0.963781
5.620000E-5,0.958469
5.640000E-5,0.968156
5.660000E-5,0.948781
5.680000E-5,0.950969
5.700000E-5,0.941281
5.720000E-5,0.939719
5.740000E-5,0.927844
5.760000E-5,0.914563
5.780000E-5,0.910656
5.800000E-5,0.901281
5.820000E-5,0.895813
5.840000E-5,0.890188
5.860000E-5,0.891750
5.880000E-5,0.884094
5.900000E-5,0.882375
5.920000E-5,0.868938
5.940000E-5,0.865031
5.960000E-5,0.876437
5.980000E-5,0.865500
6.000000E-5,0.861281
6.020000E-5,0.855500
6.040000E-5,0.838469
6.060000E-5,0.853781
6.080000E-5,0.838469
6.100000E-5,0.842375
6.120000E-5,0.836594
6.140000E-5,0.842063
6.160000E-5,0.826906
6.180000E-5,0.808000
6.200000E-5,0.819719
6.220000E-5,0.811750
6.240000E-5,0.809875
6.260000E-5,0.802375
6.280000E-5,0.798469
6.300000E-5,0.785188
6.320000E-5,0.793000
6.340000E-5,0.785031
6.360000E-5,0.777375
6.380000E-5,0.777531
6.400000E-5,0.771906
6.420000E-5,0.754406
6.440000E-5,0.753000
6.460000E-5,0.763938
6.480000E-5,0.749094
6.500000E-5,0.743156
6.520000E-5,0.735812
6.540000E-5,0.740969
6.560000E-5,0.747219
6.580000E-5,0.751281
6.600000E-5,0.731281
6.620000E-5,0.737688
6.640000E-5,0.720344
6.660000E-5,0.722375
6.680000E-5,0.712844
6.700000E-5,0.710656
6.720000E-5,0.703156
6.740000E-5,0.710813
6.760000E-5,0.703469
6.780000E-5,0.701125
6.800000E-5,0.707219
6.820000E-5,0.682219
6.840000E-5,0.678312
6.860000E-5,0.678625
6.880000E-5,0.680656
6.900000E-5,0.670656
6.920000E-5,0.665188
6.940000E-5,0.676438
6.960000E-5,0.663156
6.980000E-5,0.657531
7.000000E-5,0.655813
7.020000E-5,0.649875
7.040000E-5,0.651906
7.060000E-5,0.649875
7.080000E-5,0.642531
7.100000E-5,0.624875
7.120000E-5,0.640344
7.140000E-5,0.638625
7.160000E-5,0.609719
7.180000E-5,0.623313
7.200000E-5,0.613781
7.220000E-5,0.623156
7.240000E-5,0.626750
7.260000E-5,0.617844
7.280000E-5,0.613625
7.300000E-5,0.606125
7.320000E-5,0.590969
7.340000E-5,0.583156
7.360000E-5,0.589094
7.380000E-5,0.592375
7.400000E-5,0.587531
7.420000E-5,0.583156
7.440000E-5,0.585187
7.460000E-5,0.579250
7.480000E-5,0.581281
7.500000E-5,0.575656
7.520000E-5,0.560344
7.540000E-5,0.573625
7.560000E-5,0.566281
7.580000E-5,0.567844
7.600000E-5,0.564094
7.620000E-5,0.560500
7.640000E-5,0.554719
7.660000E-5,0.550813
7.680000E-5,0.558469
7.700000E-5,0.543156
7.720000E-5,0.550813
7.740000E-5,0.541281
7.760000E-5,0.539719
7.780000E-5,0.537375
7.800000E-5,0.528156
7.820000E-5,0.518313
7.840000E-5,0.520344
7.860000E-5,0.510969
7.880000E-5,0.520344
7.900000E-5,0.507062
7.920000E-5,0.501437
7.940000E-5,0.507062
7.960000E-5,0.501281
7.980000E-5,0.504875
8.000000E-5,0.499719
8.020000E-5,0.491750
8.040000E-5,0.499250
8.060000E-5,0.501437
8.080000E-5,0.493938
8.100000E-5,0.493781
8.120000E-5,0.474250
8.140000E-5,0.484406
8.160000E-5,0.465188
8.180000E-5,0.482375
8.200000E-5,0.484094
8.220000E-5,0.466906
8.240000E-5,0.471281
8.260000E-5,0.462688
8.280000E-5,0.457844
8.300000E-5,0.466906
8.320000E-5,0.457531
8.340000E-5,0.449875
8.360000E-5,0.450031
8.380000E-5,0.455656
8.400000E-5,0.455656
8.420000E-5,0.438156
8.440000E-5,0.438625
8.460000E-5,0.427063
8.480000E-5,0.430812
8.500000E-5,0.421594
8.520000E-5,0.438312
8.540000E-5,0.438312
8.560000E-5,0.427219
8.580000E-5,0.421125
8.600000E-5,0.425187
8.620000E-5,0.417531
8.640000E-5,0.419719
8.660000E-5,0.415500
8.680000E-5,0.411750
8.700000E-5,0.402219
8.720000E-5,0.402375
8.740000E-5,0.402375
8.760000E-5,0.404094
8.780000E-5,0.417531
8.800000E-5,0.398469
8.820000E-5,0.394719
8.840000E-5,0.402219
8.860000E-5,0.389094
8.880000E-5,0.392688
8.900000E-5,0.385031
8.920000E-5,0.388781
8.940000E-5,0.383625
8.960000E-5,0.390500
8.980000E-5,0.371906
9.000000E-5,0.381281
9.020000E-5,0.375500
9.040000E-5,0.381594
9.060000E-5,0.360500
9.080000E-5,0.360187
9.100000E-5,0.383313
9.120000E-5,0.366281
9.140000E-5,0.354406
9.160000E-5,0.360500
9.180000E-5,0.368000
9.200000E-5,0.368000
9.220000E-5,0.362375
9.240000E-5,0.358156
9.260000E-5,0.352844
9.280000E-5,0.350969
9.300000E-5,0.343313
9.320000E-5,0.333781
9.340000E-5,0.348781
9.360000E-5,0.345031
9.380000E-5,0.332062
9.400000E-5,0.335344
9.420000E-5,0.333781
9.440000E-5,0.332062
9.460000E-5,0.337219
9.480000E-5,0.330031
9.500000E-5,0.324094
9.520000E-5,0.326281
9.540000E-5,0.325969
9.560000E-5,0.316594
9.580000E-5,0.331906
9.600000E-5,0.324250
9.620000E-5,0.320188
9.640000E-5,0.308938
9.660000E-5,0.308938
9.680000E-5,0.307063
9.700000E-5,0.320344
9.720000E-5,0.301281
9.740000E-5,0.311281
9.760000E-5,0.308625
9.780000E-5,0.297531
9.800000E-5,0.289875
9.820000E-5,0.295656
9.840000E-5,0.286125
9.860000E-5,0.293938
9.880000E-5,0.291750
9.900000E-5,0.285969
9.920000E-5,0.289719
9.940000E-5,0.274719
9.960000E-5,0.284094
9.980000E-5,0.288156
