Time(s),Ch 1  (V),
0.000000,2.193469
2.000000E-7,2.207688
4.000000E-7,2.228312
6.000000E-7,2.180813
8.000000E-7,2.187844
1.000000E-6,2.186125
1.200000E-6,2.171750
1.400000E-6,2.158937
1.600000E-6,2.156906
1.800000E-6,2.159250
2.000000E-6,2.149563
2.200000E-6,2.139094
2.400000E-6,2.140656
2.600000E-6,2.135344
2.800000E-6,2.120812
3.000000E-6,2.109563
3.200000E-6,2.108156
3.400000E-6,2.115031
3.600000E-6,2.095500
3.800000E-6,2.089719
4.000000E-6,2.088156
4.200000E-6,2.084250
4.400000E-6,2.077219
4.600000E-6,2.067687
4.800000E-6,2.061125
5.000000E-6,2.069406
5.200000E-6,2.060812
5.400000E-6,2.050031
5.600000E-6,2.044250
5.800000E-6,2.042531
6.000000E-6,2.035344
6.200000E-6,2.022375
6.400000E-6,2.009875
6.600000E-6,2.011594
6.800000E-6,2.009719
7.000000E-6,1.988469
7.200000E-6,1.971437
7.400000E-6,1.977062
7.600000E-6,1.973469
7.800000E-6,1.951594
8.000000E-6,1.955500
8.200000E-6,1.949563
8.400000E-6,1.946438
8.600000E-6,1.945969
8.800000E-6,1.940969
9.000000E-6,1.942375
9.200000E-6,1.933000
9.400000E-6,1.928469
9.600000E-6,1.909719
9.800000E-6,1.904406
1.000000E-5,1.911594
1.020000E-5,1.902531
1.040000E-5,1.888000
1.060000E-5,1.886125
1.080000E-5,1.888000
1.100000E-5,1.886281
1.120000E-5,1.868156
1.140000E-5,1.862375
1.160000E-5,1.862688
1.180000E-5,1.849875
1.200000E-5,1.855187
1.220000E-5,1.837063
1.240000E-5,1.844250
1.260000E-5,1.840656
1.280000E-5,1.813469
1.300000E-5,1.819094
1.320000E-5,1.813313
1.340000E-5,1.831750
1.360000E-5,1.804094
1.380000E-5,1.791750
1.400000E-5,1.793469
1.420000E-5,1.788156
1.440000E-5,1.791594
1.460000E-5,1.780656
1.480000E-5,1.780969
1.500000E-5,1.778781
1.520000E-5,1.765969
1.540000E-5,1.744719
1.560000E-5,1.758781
1.580000E-5,1.738781
1.600000E-5,1.750031
1.620000E-5,1.738781
1.640000E-5,1.729875
1.660000E-5,1.731750
1.680000E-5,1.720500
1.700000E-5,1.707844
1.720000E-5,1.704562
1.740000E-5,1.706125
1.760000E-5,1.698937
1.780000E-5,1.686125
1.800000E-5,1.686281
1.820000E-5,1.698781
1.840000E-5,1.695500
1.860000E-5,1.675188
1.880000E-5,1.664406
1.900000E-5,1.678781
1.920000E-5,1.671750
1.940000E-5,1.653625
1.960000E-5,1.653156
1.980000E-5,1.649875
2.000000E-5,1.660656
2.020000E-5,1.646281
2.040000E-5,1.635344
2.060000E-5,1.640813
2.080000E-5,1.635031
2.100000E-5,1.615187
2.120000E-5,1.611750
2.140000E-5,1.608156
2.160000E-5,1.609719
2.180000E-5,1.595187
2.200000E-5,1.591906
2.220000E-5,1.591594
2.240000E-5,1.580656
2.260000E-5,1.582688
2.280000E-5,1.573156
2.300000E-5,1.571750
2.320000E-5,1.571594
2.340000E-5,1.568156
2.360000E-5,1.562531
2.380000E-5,1.549562
2.400000E-5,1.551750
2.420000E-5,1.558938
2.440000E-5,1.536906
2.460000E-5,1.529875
2.480000E-5,1.542687
2.500000E-5,1.526125
2.520000E-5,1.525969
2.540000E-5,1.515656
2.560000E-5,1.508000
2.580000E-5,1.504250
2.600000E-5,1.495188
2.620000E-5,1.482687
2.640000E-5,1.493313
2.660000E-5,1.491906
2.680000E-5,1.485969
2.700000E-5,1.464406
2.720000E-5,1.464406
2.740000E-5,1.466125
2.760000E-5,1.442688
2.780000E-5,1.445969
2.800000E-5,1.444406
2.820000E-5,1.448000
2.840000E-5,1.444406
2.860000E-5,1.446281
2.880000E-5,1.436906
2.900000E-5,1.435344
2.920000E-5,1.422531
2.940000E-5,1.424406
2.960000E-5,1.418625
2.980000E-5,1.413781
3.000000E-5,1.418625
3.020000E-5,1.404562
3.040000E-5,1.395188
3.060000E-5,1.391594
3.080000E-5,1.388156
3.100000E-5,1.382688
3.120000E-5,1.378781
3.140000E-5,1.384406
3.160000E-5,1.387844
3.180000E-5,1.371750
3.200000E-5,1.360656
3.220000E-5,1.369875
3.240000E-5,1.366125
3.260000E-5,1.346281
3.280000E-5,1.340656
3.300000E-5,1.348000
3.320000E-5,1.364563
3.340000E-5,1.331438
3.360000E-5,1.335656
3.380000E-5,1.329406
3.400000E-5,1.331594
3.420000E-5,1.311594
3.440000E-5,1.310031
3.460000E-5,1.322375
3.480000E-5,1.315500
3.500000E-5,1.313313
3.520000E-5,1.291750
3.540000E-5,1.304250
3.560000E-5,1.298938
3.580000E-5,1.295344
3.600000E-5,1.280656
3.620000E-5,1.275031
3.640000E-5,1.273625
3.660000E-5,1.286281
3.680000E-5,1.258625
3.700000E-5,1.253781
3.720000E-5,1.271437
3.740000E-5,1.249875
3.760000E-5,1.264563
3.780000E-5,1.249719
3.800000E-5,1.260656
3.820000E-5,1.248156
3.840000E-5,1.233313
3.860000E-5,1.237062
3.880000E-5,1.236906
3.900000E-5,1.233781
3.920000E-5,1.225969
3.940000E-5,1.222531
3.960000E-5,1.224406
3.980000E-5,1.215500
4.000000E-5,1.225969
4.020000E-5,1.198781
4.040000E-5,1.220813
4.060000E-5,1.211594
4.080000E-5,1.204562
4.100000E-5,1.200500
4.120000E-5,1.190031
4.140000E-5,1.189719
4.160000E-5,1.179094
4.180000E-5,1.177063
4.200000E-5,1.176750
4.220000E-5,1.175344
4.240000E-5,1.166438
4.260000E-5,1.164250
4.280000E-5,1.159094
4.300000E-5,1.166125
4.320000E-5,1.158937
4.340000E-5,1.165969
4.360000E-5,1.142375
4.380000E-5,1.144719
4.400000E-5,1.149719
4.420000E-5,1.133312
4.440000E-5,1.128313
4.460000E-5,1.135188
4.480000E-5,1.128000
4.500000E-5,1.124250
4.520000E-5,1.120812
4.540000E-5,1.109875
4.560000E-5,1.118625
4.580000E-5,1.098938
4.600000E-5,1.095344
4.620000E-5,1.108000
4.640000E-5,1.097063
4.660000E-5,1.082531
4.680000E-5,1.077219
4.700000E-5,1.091594
4.720000E-5,1.077063
4.740000E-5,1.058938
4.760000E-5,1.060500
4.780000E-5,1.069875
4.800000E-5,1.071594
4.820000E-5,1.077375
4.840000E-5,1.057219
4.860000E-5,1.062375
4.880000E-5,1.057063
4.900000E-5,1.057219
4.920000E-5,1.047844
4.940000E-5,1.042531
4.960000E-5,1.042531
4.980000E-5,1.046281
5.000000E-5,1.026125
5.020000E-5,1.033313
5.040000E-5,1.035500
5.060000E-5,1.037062
5.080000E-5,1.024250
5.100000E-5,1.018938
5.120000E-5,1.018938
5.140000E-5,1.013625
5.160000E-5,1.015188
5.180000E-5,0.984406
5.200000E-5,1.006281
5.220000E-5,1.002375
5.240000E-5,0.997063
5.260000E-5,0.984563
5.280000E-5,1.004094
5.300000E-5,0.997063
5.320000E-5,0.986594
5.340000E-5,0.975031
5.360000E-5,0.978781
5.380000E-5,0.977219
5.400000E-5,0.971750
5.420000E-5,0.971281
5.440000E-5,0.964562
5.460000E-5,0.980812
5.480000E-5,0.975344
5.500000E-5,0.951594
5.520000E-5,0.958781
5.540000E-5,0.955344
5.560000E-5,0.947844
5.580000E-5,0.942688
5.600000E-5,0.936750
5.620000E-5,0.944875
5.640000E-5,0.951281
5.660000E-5,0.928312
5.680000E-5,0.927687
5.700000E-5,0.935188
5.720000E-5,0.924563
5.740000E-5,0.924406
5.760000E-5,0.909875
5.780000E-5,0.920656
5.800000E-5,0.935344
5.820000E-5,0.902687
5.840000E-5,0.896750
5.860000E-5,0.919094
5.880000E-5,0.915031
5.900000E-5,0.893625
5.920000E-5,0.900813
5.940000E-5,0.895188
5.960000E-5,0.904406
5.980000E-5,0.904250
6.000000E-5,0.884406
6.020000E-5,0.889875
6.040000E-5,0.888000
6.060000E-5,0.887844
6.080000E-5,0.871594
6.100000E-5,0.864875
6.120000E-5,0.875188
6.140000E-5,0.862375
6.160000E-5,0.858781
6.180000E-5,0.859094
6.200000E-5,0.862531
6.220000E-5,0.860656
6.240000E-5,0.845969
6.260000E-5,0.840969
6.280000E-5,0.844406
6.300000E-5,0.851438
6.320000E-5,0.842531
6.340000E-5,0.842531
6.360000E-5,0.826594
6.380000E-5,0.833313
6.400000E-5,0.829562
6.420000E-5,0.828000
6.440000E-5,0.824406
6.460000E-5,0.835344
6.480000E-5,0.820656
6.500000E-5,0.822375
6.520000E-5,0.804406
6.540000E-5,0.817375
6.560000E-5,0.807844
6.580000E-5,0.795188
6.600000E-5,0.810031
6.620000E-5,0.802375
6.640000E-5,0.790031
6.660000E-5,0.784250
6.680000E-5,0.795188
6.700000E-5,0.782687
6.720000E-5,0.798781
6.740000E-5,0.771906
6.760000E-5,0.776906
6.780000E-5,0.791438
6.800000E-5,0.786281
6.820000E-5,0.771594
6.840000E-5,0.768156
6.860000E-5,0.775031
6.880000E-5,0.775344
6.900000E-5,0.776906
6.920000E-5,0.770188
6.940000E-5,0.764094
6.960000E-5,0.773625
6.980000E-5,0.748156
7.000000E-5,0.745969
7.020000E-5,0.748156
7.040000E-5,0.744406
7.060000E-5,0.751437
7.080000E-5,0.737219
7.100000E-5,0.751906
7.120000E-5,0.738469
7.140000E-5,0.737219
7.160000E-5,0.729875
7.180000E-5,0.731594
7.200000E-5,0.740656
7.220000E-5,0.715344
7.240000E-5,0.708000
7.260000E-5,0.720500
7.280000E-5,0.726281
7.300000E-5,0.713469
7.320000E-5,0.717063
7.340000E-5,0.710187
7.360000E-5,0.725969
7.380000E-5,0.706125
7.400000E-5,0.705969
7.420000E-5,0.706438
7.440000E-5,0.713469
7.460000E-5,0.706125
7.480000E-5,0.698937
7.500000E-5,0.686125
7.520000E-5,0.693312
7.540000E-5,0.697219
7.560000E-5,0.688156
7.580000E-5,0.686125
7.600000E-5,0.684406
7.620000E-5,0.691438
7.640000E-5,0.682531
7.660000E-5,0.671750
7.680000E-5,0.675188
7.700000E-5,0.688000
7.720000E-5,0.666125
7.740000E-5,0.684562
7.760000E-5,0.675188
7.780000E-5,0.679094
7.800000E-5,0.669719
7.820000E-5,0.658625
7.840000E-5,0.666281
7.860000E-5,0.675344
7.880000E-5,0.657062
7.900000E-5,0.655500
7.920000E-5,0.656906
7.940000E-5,0.664563
7.960000E-5,0.658625
7.980000E-5,0.637219
8.000000E-5,0.655344
8.020000E-5,0.642375
8.040000E-5,0.649719
8.060000E-5,0.631750
8.080000E-5,0.637062
8.100000E-5,0.635344
8.120000E-5,0.620812
8.140000E-5,0.620500
8.160000E-5,0.637219
8.180000E-5,0.609875
8.200000E-5,0.613469
8.220000E-5,0.606281
8.240000E-5,0.613156
8.260000E-5,0.622844
8.280000E-5,0.620656
8.300000E-5,0.609719
8.320000E-5,0.604563
8.340000E-5,0.615344
8.360000E-5,0.604094
8.380000E-5,0.600812
8.400000E-5,0.586125
8.420000E-5,0.609875
8.440000E-5,0.595656
8.460000E-5,0.607688
8.480000E-5,0.582531
8.500000E-5,0.586125
8.520000E-5,0.595187
8.540000E-5,0.593469
8.560000E-5,0.578781
8.580000E-5,0.584562
8.600000E-5,0.588000
8.620000E-5,0.582531
8.640000E-5,0.562688
8.660000E-5,0.573469
8.680000E-5,0.571594
8.700000E-5,0.573313
8.720000E-5,0.582219
8.740000E-5,0.566438
8.760000E-5,0.566125
8.780000E-5,0.558937
8.800000E-5,0.564562
8.820000E-5,0.564406
8.840000E-5,0.568000
8.860000E-5,0.553312
8.880000E-5,0.557219
8.900000E-5,0.547844
8.920000E-5,0.551594
8.940000E-5,0.564406
8.960000E-5,0.548156
8.980000E-5,0.538781
9.000000E-5,0.546125
9.020000E-5,0.551594
9.040000E-5,0.535344
9.060000E-5,0.536906
9.080000E-5,0.541125
9.100000E-5,0.538781
9.120000E-5,0.531750
9.140000E-5,0.525969
9.160000E-5,0.520969
9.180000E-5,0.520500
9.200000E-5,0.518938
9.220000E-5,0.524406
9.240000E-5,0.529875
9.260000E-5,0.542687
9.280000E-5,0.515188
9.300000E-5,0.520656
9.320000E-5,0.515344
9.340000E-5,0.526125
9.360000E-5,0.514875
9.380000E-5,0.510188
9.400000E-5,0.515188
9.420000E-5,0.511750
9.440000E-5,0.516906
9.460000E-5,0.500969
9.480000E-5,0.517219
9.500000E-5,0.505812
9.520000E-5,0.517219
9.540000E-5,0.509719
9.560000E-5,0.500812
9.580000E-5,0.495500
9.600000E-5,0.489406
9.620000E-5,0.486281
9.640000E-5,0.475187
9.660000E-5,0.497375
9.680000E-5,0.493469
9.700000E-5,0.486281
9.720000E-5,0.484094
9.740000E-5,0.488156
9.760000E-5,0.482375
9.780000E-5,0.488000
9.800000E-5,0.466281
9.820000E-5,0.482531
9.840000E-5,0.475187
9.860000E-5,0.477063
9.880000E-5,0.466438
9.900000E-5,0.465813
9.920000E-5,0.479250
9.940000E-5,0.475031
9.960000E-5,0.449875
9.980000E-5,0.468000
