Time(s),Ch 1  (V),
0.000000,2.039875
1.000000E-8,2.037375
2.000000E-8,2.493156
3.000000E-8,2.237531
4.000000E-8,2.232219
5.000000E-8,1.981125
6.000000E-8,1.205344
7.000000E-8,1.717375
8.000000E-8,2.288156
9.000000E-8,2.269250
1.000000E-7,2.453313
1.100000E-7,2.311906
1.200000E-7,1.594719
1.300000E-7,1.789094
1.400000E-7,2.072219
1.500000E-7,1.960031
1.600000E-7,2.178625
1.700000E-7,2.175969
1.800000E-7,1.941125
1.900000E-7,2.090969
2.000000E-7,2.087844
2.100000E-7,1.877531
2.200000E-7,1.877219
2.300000E-7,1.893312
2.400000E-7,1.944094
2.500000E-7,2.181281
2.600000E-7,2.218625
2.700000E-7,2.010813
2.800000E-7,1.882531
2.900000E-7,1.751750
3.000000E-7,1.835031
3.100000E-7,2.114875
3.200000E-7,2.202375
3.300000E-7,2.085344
3.400000E-7,1.920031
3.500000E-7,1.725500
3.600000E-7,1.757062
3.700000E-7,1.970656
3.800000E-7,2.080031
3.900000E-7,2.125500
4.000000E-7,2.023938
4.100000E-7,1.818625
4.200000E-7,1.781438
4.300000E-7,1.882688
4.400000E-7,1.959875
4.500000E-7,2.031906
4.600000E-7,1.999875
4.700000E-7,1.888156
4.800000E-7,1.848000
4.900000E-7,1.890656
5.000000E-7,1.901281
5.100000E-7,1.930656
5.200000E-7,1.896125
5.300000E-7,1.869250
5.400000E-7,1.904094
5.500000E-7,1.917219
5.600000E-7,1.920187
5.700000E-7,1.866594
5.800000E-7,1.848000
5.900000E-7,1.848000
6.000000E-7,1.885500
6.100000E-7,1.906438
6.200000E-7,1.901438
6.300000E-7,1.866750
6.400000E-7,1.826594
6.500000E-7,1.805187
6.600000E-7,1.837375
6.700000E-7,1.882531
6.800000E-7,1.901594
6.900000E-7,1.885500
7.000000E-7,1.823469
7.100000E-7,1.776438
7.200000E-7,1.778781
7.300000E-7,1.834406
7.400000E-7,1.861438
7.500000E-7,1.863938
7.600000E-7,1.821438
7.700000E-7,1.786281
7.800000E-7,1.794875
7.900000E-7,1.794563
8.000000E-7,1.818781
8.100000E-7,1.808156
8.200000E-7,1.802531
8.300000E-7,1.786750
8.400000E-7,1.791906
8.500000E-7,1.810812
8.600000E-7,1.775969
8.700000E-7,1.783937
8.800000E-7,1.770656
8.900000E-7,1.778625
9.000000E-7,1.781594
9.100000E-7,1.762375
9.200000E-7,1.765344
9.300000E-7,1.746750
9.400000E-7,1.746594
9.500000E-7,1.744094
9.600000E-7,1.738625
9.700000E-7,1.749406
9.800000E-7,1.762531
9.900000E-7,1.744094
1.000000E-6,1.728000
1.010000E-6,1.717531
1.020000E-6,1.735656
1.030000E-6,1.743938
1.040000E-6,1.746906
1.050000E-6,1.725344
1.060000E-6,1.722531
1.070000E-6,1.690813
1.080000E-6,1.717219
1.090000E-6,1.717375
1.100000E-6,1.709406
1.110000E-6,1.703938
1.120000E-6,1.695969
1.130000E-6,1.696125
1.140000E-6,1.698625
1.150000E-6,1.698625
1.160000E-6,1.672063
1.170000E-6,1.706438
1.180000E-6,1.677375
1.190000E-6,1.666750
1.200000E-6,1.674562
1.210000E-6,1.664094
1.220000E-6,1.658625
1.230000E-6,1.658625
1.240000E-6,1.661281
1.250000E-6,1.672063
1.260000E-6,1.669406
1.270000E-6,1.648000
1.280000E-6,1.645031
1.290000E-6,1.632062
1.300000E-6,1.642844
1.310000E-6,1.648000
1.320000E-6,1.640031
1.330000E-6,1.632062
1.340000E-6,1.648000
1.350000E-6,1.621281
1.360000E-6,1.605344
1.370000E-6,1.605344
1.380000E-6,1.610656
1.390000E-6,1.623938
1.400000E-6,1.616125
1.410000E-6,1.600031
1.420000E-6,1.605344
1.430000E-6,1.589250
1.440000E-6,1.594563
1.450000E-6,1.592062
1.460000E-6,1.589406
1.470000E-6,1.589406
1.480000E-6,1.589094
1.490000E-6,1.578781
1.500000E-6,1.581281
1.510000E-6,1.565344
1.520000E-6,1.554719
1.530000E-6,1.573313
1.540000E-6,1.573156
1.550000E-6,1.565500
1.560000E-6,1.551906
1.570000E-6,1.549406
1.580000E-6,1.554875
1.590000E-6,1.557063
1.600000E-6,1.536125
1.610000E-6,1.543937
1.620000E-6,1.549250
1.630000E-6,1.538781
1.640000E-6,1.541281
1.650000E-6,1.533469
1.660000E-6,1.517219
1.670000E-6,1.520188
1.680000E-6,1.530344
1.690000E-6,1.522844
1.700000E-6,1.509250
1.710000E-6,1.504250
1.720000E-6,1.517062
1.730000E-6,1.506906
1.740000E-6,1.512063
1.750000E-6,1.490344
1.760000E-6,1.493313
1.770000E-6,1.493625
1.780000E-6,1.511750
1.790000E-6,1.501281
1.800000E-6,1.485500
1.810000E-6,1.482844
1.820000E-6,1.471750
1.830000E-6,1.472063
1.840000E-6,1.477375
1.850000E-6,1.471906
1.860000E-6,1.474719
1.870000E-6,1.458781
1.880000E-6,1.463938
1.890000E-6,1.474562
1.900000E-6,1.439875
1.910000E-6,1.464094
1.920000E-6,1.450500
1.930000E-6,1.443000
1.940000E-6,1.447844
1.950000E-6,1.437531
1.960000E-6,1.426594
1.970000E-6,1.429250
1.980000E-6,1.434719
1.990000E-6,1.426594
2.000000E-6,1.437375
2.010000E-6,1.424094
2.020000E-6,1.413156
2.030000E-6,1.413469
2.040000E-6,1.410813
2.050000E-6,1.418469
2.060000E-6,1.408156
2.070000E-6,1.418625
2.080000E-6,1.426594
2.090000E-6,1.402688
2.100000E-6,1.383938
2.110000E-6,1.392062
2.120000E-6,1.391906
2.130000E-6,1.386594
2.140000E-6,1.405500
2.150000E-6,1.373156
2.160000E-6,1.392375
2.170000E-6,1.370344
2.180000E-6,1.365344
2.190000E-6,1.365500
2.200000E-6,1.362844
2.210000E-6,1.343781
2.220000E-6,1.360031
2.230000E-6,1.357219
2.240000E-6,1.360031
2.250000E-6,1.354563
2.260000E-6,1.344094
2.270000E-6,1.333156
2.280000E-6,1.328156
2.290000E-6,1.341281
2.300000E-6,1.346906
2.310000E-6,1.333156
2.320000E-6,1.341281
2.330000E-6,1.344094
2.340000E-6,1.317375
2.350000E-6,1.306750
2.360000E-6,1.306437
2.370000E-6,1.323000
2.380000E-6,1.316906
2.390000E-6,1.312219
2.400000E-6,1.306281
2.410000E-6,1.307063
2.420000E-6,1.306594
2.430000E-6,1.304094
2.440000E-6,1.306594
2.450000E-6,1.288000
2.460000E-6,1.285187
2.470000E-6,1.293313
2.480000E-6,1.296281
2.490000E-6,1.293000
2.500000E-6,1.269562
2.510000E-6,1.255969
2.520000E-6,1.255969
2.530000E-6,1.274719
2.540000E-6,1.280031
2.550000E-6,1.253313
2.560000E-6,1.271906
2.570000E-6,1.255969
2.580000E-6,1.253469
2.590000E-6,1.245344
2.600000E-6,1.253156
2.610000E-6,1.237531
2.620000E-6,1.239875
2.630000E-6,1.248000
2.640000E-6,1.248156
2.650000E-6,1.223938
2.660000E-6,1.229250
2.670000E-6,1.240031
2.680000E-6,1.237375
2.690000E-6,1.213469
2.700000E-6,1.218469
2.710000E-6,1.226750
2.720000E-6,1.218625
2.730000E-6,1.229406
2.740000E-6,1.199875
2.750000E-6,1.210813
2.760000E-6,1.207844
2.770000E-6,1.218781
2.780000E-6,1.202688
2.790000E-6,1.205344
2.800000E-6,1.189250
2.810000E-6,1.183938
2.820000E-6,1.194875
2.830000E-6,1.194562
2.840000E-6,1.197375
2.850000E-6,1.186750
2.860000E-6,1.181281
2.870000E-6,1.178625
2.880000E-6,1.189250
2.890000E-6,1.176125
2.900000E-6,1.173156
2.910000E-6,1.170813
2.920000E-6,1.170500
2.930000E-6,1.160187
2.940000E-6,1.146750
2.950000E-6,1.144094
2.960000E-6,1.156906
2.970000E-6,1.170813
2.980000E-6,1.146594
2.990000E-6,1.144250
3.000000E-6,1.151750
3.010000E-6,1.138937
3.020000E-6,1.141281
3.030000E-6,1.136125
3.040000E-6,1.133000
3.050000E-6,1.133312
3.060000E-6,1.152062
3.070000E-6,1.141281
3.080000E-6,1.141594
3.090000E-6,1.111750
3.100000E-6,1.117375
3.110000E-6,1.104250
3.120000E-6,1.109094
3.130000E-6,1.112062
3.140000E-6,1.109406
3.150000E-6,1.114563
3.160000E-6,1.101281
3.170000E-6,1.101438
3.180000E-6,1.109563
3.190000E-6,1.090344
3.200000E-6,1.077375
3.210000E-6,1.101281
3.220000E-6,1.088156
3.230000E-6,1.080031
3.240000E-6,1.082531
3.250000E-6,1.085344
3.260000E-6,1.088000
3.270000E-6,1.061281
3.280000E-6,1.088313
3.290000E-6,1.077063
3.300000E-6,1.066750
3.310000E-6,1.074563
3.320000E-6,1.072062
3.330000E-6,1.058781
3.340000E-6,1.053156
3.350000E-6,1.050656
3.360000E-6,1.055969
3.370000E-6,1.050656
3.380000E-6,1.056125
3.390000E-6,1.048000
3.400000E-6,1.048000
3.410000E-6,1.045500
3.420000E-6,1.047844
3.430000E-6,1.042687
3.440000E-6,1.037219
3.450000E-6,1.037219
3.460000E-6,1.032219
3.470000E-6,1.050656
3.480000E-6,1.034719
3.490000E-6,1.005188
3.500000E-6,1.016125
3.510000E-6,1.032063
3.520000E-6,1.026594
3.530000E-6,1.029250
3.540000E-6,1.008000
3.550000E-6,1.015813
3.560000E-6,1.011125
3.570000E-6,1.002375
3.580000E-6,1.002687
3.590000E-6,1.013469
3.600000E-6,0.988938
3.610000E-6,1.008312
3.620000E-6,1.005344
3.630000E-6,0.992063
3.640000E-6,1.002687
3.650000E-6,0.992063
3.660000E-6,0.983625
3.670000E-6,0.984250
3.680000E-6,0.973156
3.690000E-6,0.973625
3.700000E-6,0.989250
3.710000E-6,0.981438
3.720000E-6,0.975656
3.730000E-6,0.981438
3.740000E-6,0.968000
3.750000E-6,0.973156
3.760000E-6,0.986906
3.770000E-6,0.975969
3.780000E-6,0.965344
3.790000E-6,0.951750
3.800000E-6,0.946906
3.810000E-6,0.965500
3.820000E-6,0.962375
3.830000E-6,0.952063
3.840000E-6,0.957375
3.850000E-6,0.943937
3.860000E-6,0.946750
3.870000E-6,0.962688
3.880000E-6,0.938625
3.890000E-6,0.933469
3.900000E-6,0.928156
3.910000E-6,0.935813
3.920000E-6,0.935969
3.930000E-6,0.925344
3.940000E-6,0.909406
3.950000E-6,0.927844
3.960000E-6,0.938625
3.970000E-6,0.917375
3.980000E-6,0.925188
3.990000E-6,0.920031
4.000000E-6,0.920188
4.010000E-6,0.903938
4.020000E-6,0.898625
4.030000E-6,0.917375
4.040000E-6,0.901281
4.050000E-6,0.920031
4.060000E-6,0.922687
4.070000E-6,0.896125
4.080000E-6,0.893156
4.090000E-6,0.882844
4.100000E-6,0.893156
4.110000E-6,0.888000
4.120000E-6,0.893313
4.130000E-6,0.885500
4.140000E-6,0.890500
4.150000E-6,0.877375
4.160000E-6,0.882688
4.170000E-6,0.874563
4.180000E-6,0.856125
4.190000E-6,0.869250
4.200000E-6,0.885500
4.210000E-6,0.888156
4.220000E-6,0.866437
4.230000E-6,0.866750
4.240000E-6,0.866750
4.250000E-6,0.858469
4.260000E-6,0.834562
4.270000E-6,0.856125
4.280000E-6,0.866750
4.290000E-6,0.845500
4.300000E-6,0.850344
4.310000E-6,0.869250
4.320000E-6,0.840344
4.330000E-6,0.837063
4.340000E-6,0.845500
4.350000E-6,0.842531
4.360000E-6,0.840031
4.370000E-6,0.834875
4.380000E-6,0.842531
4.390000E-6,0.837375
4.400000E-6,0.821281
4.410000E-6,0.829250
4.420000E-6,0.834562
4.430000E-6,0.840187
4.440000E-6,0.832063
4.450000E-6,0.821281
4.460000E-6,0.829250
4.470000E-6,0.834719
4.480000E-6,0.815969
4.490000E-6,0.802531
4.500000E-6,0.810656
4.510000E-6,0.813469
4.520000E-6,0.810656
4.530000E-6,0.808000
4.540000E-6,0.813469
4.550000E-6,0.802531
4.560000E-6,0.797375
4.570000E-6,0.783938
4.580000E-6,0.794875
4.590000E-6,0.783938
4.600000E-6,0.789250
4.610000E-6,0.802687
4.620000E-6,0.794719
4.630000E-6,0.789250
4.640000E-6,0.791906
4.650000E-6,0.781438
4.660000E-6,0.781281
4.670000E-6,0.781438
4.680000E-6,0.754563
4.690000E-6,0.773469
4.700000E-6,0.781281
4.710000E-6,0.770656
4.720000E-6,0.768000
4.730000E-6,0.760031
4.740000E-6,0.765344
4.750000E-6,0.767844
4.760000E-6,0.768156
4.770000E-6,0.765188
4.780000E-6,0.746906
4.790000E-6,0.762531
4.800000E-6,0.757375
4.810000E-6,0.770656
4.820000E-6,0.735969
4.830000E-6,0.751906
4.840000E-6,0.746750
4.850000E-6,0.741437
4.860000E-6,0.751750
4.870000E-6,0.741437
4.880000E-6,0.741281
4.890000E-6,0.746750
4.900000E-6,0.741437
4.910000E-6,0.746437
4.920000E-6,0.709406
4.930000E-6,0.706750
4.940000E-6,0.733156
4.950000E-6,0.725656
4.960000E-6,0.730656
4.970000E-6,0.727844
4.980000E-6,0.725187
4.990000E-6,0.714875
