Time(s),Ch 1  (V),
0.000000,3.802375
1.000000E-7,3.569875
2.000000E-7,3.575031
3.000000E-7,3.546438
4.000000E-7,3.524406
5.000000E-7,3.508156
6.000000E-7,3.487844
7.000000E-7,3.460813
8.000000E-7,3.444094
9.000000E-7,3.413469
1.000000E-6,3.398938
1.100000E-6,3.367844
1.200000E-6,3.344562
1.300000E-6,3.313156
1.400000E-6,3.291906
1.500000E-6,3.277219
1.600000E-6,3.242531
1.700000E-6,3.227844
1.800000E-6,3.191594
1.900000E-6,3.175344
2.000000E-6,3.155188
2.100000E-6,3.130031
2.200000E-6,3.107844
2.300000E-6,3.102531
2.400000E-6,3.064563
2.500000E-6,3.060656
2.600000E-6,3.040500
2.700000E-6,2.989875
2.800000E-6,2.979094
2.900000E-6,2.957063
3.000000E-6,2.939094
3.100000E-6,2.922063
3.200000E-6,2.908000
3.300000E-6,2.884562
3.400000E-6,2.855187
3.500000E-6,2.833625
3.600000E-6,2.813312
3.700000E-6,2.793625
3.800000E-6,2.775031
3.900000E-6,2.753625
4.000000E-6,2.738938
4.100000E-6,2.730031
4.200000E-6,2.702375
4.300000E-6,2.686125
4.400000E-6,2.664406
4.500000E-6,2.646281
4.600000E-6,2.625969
4.700000E-6,2.595188
4.800000E-6,2.588156
4.900000E-6,2.558781
5.000000E-6,2.544563
5.100000E-6,2.522531
5.200000E-6,2.495188
5.300000E-6,2.479094
5.400000E-6,2.458938
5.500000E-6,2.446125
5.600000E-6,2.435188
5.700000E-6,2.409875
5.800000E-6,2.406125
5.900000E-6,2.373469
6.000000E-6,2.362531
6.100000E-6,2.338781
6.200000E-6,2.335344
6.300000E-6,2.304406
6.400000E-6,2.298938
6.500000E-6,2.291594
6.600000E-6,2.271750
6.700000E-6,2.244094
6.800000E-6,2.237375
6.900000E-6,2.209719
7.000000E-6,2.189719
7.100000E-6,2.179094
7.200000E-6,2.169406
7.300000E-6,2.144563
7.400000E-6,2.139094
7.500000E-6,2.131594
7.600000E-6,2.109719
7.700000E-6,2.102688
7.800000E-6,2.095188
7.900000E-6,2.066125
8.000000E-6,2.055500
8.100000E-6,2.049719
8.200000E-6,2.034875
8.300000E-6,2.004719
8.400000E-6,1.997062
8.500000E-6,1.975344
8.600000E-6,1.963938
8.700000E-6,1.946750
8.800000E-6,1.942219
8.900000E-6,1.926125
9.000000E-6,1.922844
9.100000E-6,1.889719
9.200000E-6,1.877219
9.300000E-6,1.865969
9.400000E-6,1.853469
9.500000E-6,1.844250
9.600000E-6,1.835344
9.700000E-6,1.817375
9.800000E-6,1.796906
9.900000E-6,1.777062
1.000000E-5,1.778781
1.010000E-5,1.751750
1.020000E-5,1.733313
1.030000E-5,1.730031
1.040000E-5,1.724250
1.050000E-5,1.708156
1.060000E-5,1.698781
1.070000E-5,1.695344
1.080000E-5,1.678937
1.090000E-5,1.673469
1.100000E-5,1.645969
1.110000E-5,1.635500
1.120000E-5,1.633312
1.130000E-5,1.606281
1.140000E-5,1.602531
1.150000E-5,1.589719
1.160000E-5,1.591594
1.170000E-5,1.559250
1.180000E-5,1.562375
1.190000E-5,1.535187
1.200000E-5,1.529875
1.210000E-5,1.511594
1.220000E-5,1.522687
1.230000E-5,1.504094
1.240000E-5,1.490031
1.250000E-5,1.489875
1.260000E-5,1.471437
1.270000E-5,1.464562
1.280000E-5,1.451594
1.290000E-5,1.438937
1.300000E-5,1.436906
1.310000E-5,1.433625
1.320000E-5,1.424250
1.330000E-5,1.391750
1.340000E-5,1.393312
1.350000E-5,1.373625
1.360000E-5,1.369563
1.370000E-5,1.357375
1.380000E-5,1.349875
1.390000E-5,1.338625
1.400000E-5,1.338781
1.410000E-5,1.330031
1.420000E-5,1.313469
1.430000E-5,1.302531
1.440000E-5,1.293469
1.450000E-5,1.290031
1.460000E-5,1.282375
1.470000E-5,1.277219
1.480000E-5,1.254875
1.490000E-5,1.246438
1.500000E-5,1.233313
1.510000E-5,1.226281
1.520000E-5,1.213469
1.530000E-5,1.206281
1.540000E-5,1.193156
1.550000E-5,1.197219
1.560000E-5,1.191750
1.570000E-5,1.180813
1.580000E-5,1.167687
1.590000E-5,1.160813
1.600000E-5,1.140656
1.610000E-5,1.148000
1.620000E-5,1.140969
1.630000E-5,1.120500
1.640000E-5,1.122844
1.650000E-5,1.111281
1.660000E-5,1.088156
1.670000E-5,1.095344
1.680000E-5,1.080656
1.690000E-5,1.068156
1.700000E-5,1.069719
1.710000E-5,1.070031
1.720000E-5,1.045969
1.730000E-5,1.046125
1.740000E-5,1.040812
1.750000E-5,1.040500
1.760000E-5,1.029875
1.770000E-5,1.022531
1.780000E-5,1.020969
1.790000E-5,1.004250
1.800000E-5,1.002531
1.810000E-5,1.004250
1.820000E-5,0.980812
1.830000E-5,0.976906
1.840000E-5,0.973625
1.850000E-5,0.966281
1.860000E-5,0.953625
1.870000E-5,0.951594
1.880000E-5,0.931438
1.890000E-5,0.951906
1.900000E-5,0.940500
1.910000E-5,0.926125
1.920000E-5,0.918938
1.930000E-5,0.913625
1.940000E-5,0.911594
1.950000E-5,0.906281
1.960000E-5,0.895188
1.970000E-5,0.886125
1.980000E-5,0.877219
1.990000E-5,0.874875
2.000000E-5,0.861125
2.010000E-5,0.851594
2.020000E-5,0.856750
2.030000E-5,0.853781
2.040000E-5,0.836906
2.050000E-5,0.844250
2.060000E-5,0.842688
2.070000E-5,0.828156
2.080000E-5,0.819094
2.090000E-5,0.798625
2.100000E-5,0.797063
2.110000E-5,0.809875
2.120000E-5,0.789719
2.130000E-5,0.790031
2.140000E-5,0.784094
2.150000E-5,0.790031
2.160000E-5,0.760813
2.170000E-5,0.775188
2.180000E-5,0.755344
2.190000E-5,0.729563
2.200000E-5,0.742844
2.210000E-5,0.747688
2.220000E-5,0.742688
2.230000E-5,0.728000
2.240000E-5,0.728000
2.250000E-5,0.727844
2.260000E-5,0.713469
2.270000E-5,0.722531
2.280000E-5,0.715500
2.290000E-5,0.711594
2.300000E-5,0.713469
2.310000E-5,0.699094
2.320000E-5,0.683937
2.330000E-5,0.682688
2.340000E-5,0.675344
2.350000E-5,0.676906
2.360000E-5,0.671750
2.370000E-5,0.673469
2.380000E-5,0.660813
2.390000E-5,0.662219
2.400000E-5,0.653781
2.410000E-5,0.662375
2.420000E-5,0.635188
2.430000E-5,0.640969
2.440000E-5,0.631437
2.450000E-5,0.631906
2.460000E-5,0.622375
2.470000E-5,0.622531
2.480000E-5,0.631437
2.490000E-5,0.611906
2.500000E-5,0.595187
2.510000E-5,0.589875
2.520000E-5,0.593469
2.530000E-5,0.580656
2.540000E-5,0.597063
2.550000E-5,0.582531
2.560000E-5,0.578937
2.570000E-5,0.586281
2.580000E-5,0.573469
2.590000E-5,0.560656
2.600000E-5,0.560813
2.610000E-5,0.555344
2.620000E-5,0.549875
2.630000E-5,0.562219
2.640000E-5,0.553312
2.650000E-5,0.538937
2.660000E-5,0.548312
2.670000E-5,0.535188
2.680000E-5,0.526125
2.690000E-5,0.529875
2.700000E-5,0.529719
2.710000E-5,0.513625
2.720000E-5,0.515031
2.730000E-5,0.511906
2.740000E-5,0.509875
2.750000E-5,0.509563
2.760000E-5,0.515344
2.770000E-5,0.496906
2.780000E-5,0.515500
2.790000E-5,0.498938
2.800000E-5,0.488000
2.810000E-5,0.489719
2.820000E-5,0.493469
2.830000E-5,0.480656
2.840000E-5,0.478938
2.850000E-5,0.470031
2.860000E-5,0.473156
2.870000E-5,0.477531
2.880000E-5,0.480656
2.890000E-5,0.465969
2.900000E-5,0.462375
2.910000E-5,0.459094
2.920000E-5,0.457062
2.930000E-5,0.460813
2.940000E-5,0.446125
2.950000E-5,0.446281
2.960000E-5,0.442531
2.970000E-5,0.429719
2.980000E-5,0.440812
2.990000E-5,0.428156
3.000000E-5,0.407844
3.010000E-5,0.420500
3.020000E-5,0.417375
3.030000E-5,0.418781
3.040000E-5,0.431438
3.050000E-5,0.415500
3.060000E-5,0.411438
3.070000E-5,0.410031
3.080000E-5,0.400656
3.090000E-5,0.386125
3.100000E-5,0.404562
3.110000E-5,0.393313
3.120000E-5,0.395344
3.130000E-5,0.395500
3.140000E-5,0.395188
3.150000E-5,0.371594
3.160000E-5,0.382219
3.170000E-5,0.371750
3.180000E-5,0.360812
3.190000E-5,0.366438
3.200000E-5,0.382219
3.210000E-5,0.371594
3.220000E-5,0.368000
3.230000E-5,0.360812
3.240000E-5,0.355344
3.250000E-5,0.360656
3.260000E-5,0.353469
3.270000E-5,0.353469
3.280000E-5,0.357063
3.290000E-5,0.357063
3.300000E-5,0.351750
3.310000E-5,0.340813
3.320000E-5,0.333313
3.330000E-5,0.331437
3.340000E-5,0.340969
3.350000E-5,0.333469
3.360000E-5,0.337062
3.370000E-5,0.333625
3.380000E-5,0.329875
3.390000E-5,0.338625
3.400000E-5,0.322844
3.410000E-5,0.322375
3.420000E-5,0.328000
3.430000E-5,0.307688
3.440000E-5,0.317219
3.450000E-5,0.326125
3.460000E-5,0.313625
3.470000E-5,0.307844
3.480000E-5,0.297219
3.490000E-5,0.300969
3.500000E-5,0.296906
3.510000E-5,0.296906
3.520000E-5,0.289875
3.530000E-5,0.297063
3.540000E-5,0.297063
3.550000E-5,0.301125
3.560000E-5,0.293313
3.570000E-5,0.269562
3.580000E-5,0.286125
3.590000E-5,0.288156
3.600000E-5,0.278781
3.610000E-5,0.275031
3.620000E-5,0.270344
3.630000E-5,0.271437
3.640000E-5,0.268000
3.650000E-5,0.266125
3.660000E-5,0.262688
3.670000E-5,0.253469
3.680000E-5,0.256906
3.690000E-5,0.266437
3.700000E-5,0.249406
3.710000E-5,0.261125
3.720000E-5,0.253312
3.730000E-5,0.262844
3.740000E-5,0.258469
3.750000E-5,0.266281
3.760000E-5,0.248156
3.770000E-5,0.251594
3.780000E-5,0.246438
3.790000E-5,0.249406
3.800000E-5,0.242688
3.810000E-5,0.242531
3.820000E-5,0.237063
3.830000E-5,0.240969
3.840000E-5,0.224250
3.850000E-5,0.240656
3.860000E-5,0.231594
3.870000E-5,0.233469
3.880000E-5,0.233469
3.890000E-5,0.227844
3.900000E-5,0.228156
3.910000E-5,0.237219
3.920000E-5,0.231438
3.930000E-5,0.211750
3.940000E-5,0.225812
3.950000E-5,0.222844
3.960000E-5,0.220812
3.970000E-5,0.216906
3.980000E-5,0.199250
3.990000E-5,0.200656
4.000000E-5,0.202375
4.010000E-5,0.208156
4.020000E-5,0.209719
4.030000E-5,0.205969
4.040000E-5,0.209875
4.050000E-5,0.202687
4.060000E-5,0.204250
4.070000E-5,0.193625
4.080000E-5,0.188156
4.090000E-5,0.200500
4.100000E-5,0.202687
4.110000E-5,0.200656
4.120000E-5,0.202375
4.130000E-5,0.197375
4.140000E-5,0.180500
4.150000E-5,0.184250
4.160000E-5,0.191750
4.170000E-5,0.184250
4.180000E-5,0.175500
4.190000E-5,0.188000
4.200000E-5,0.184406
4.210000E-5,0.180500
4.220000E-5,0.191906
4.230000E-5,0.175187
4.240000E-5,0.184250
4.250000E-5,0.177063
4.260000E-5,0.180813
4.270000E-5,0.180500
4.280000E-5,0.183000
4.290000E-5,0.178625
4.300000E-5,0.160812
4.310000E-5,0.171594
4.320000E-5,0.158938
4.330000E-5,0.164563
4.340000E-5,0.171437
4.350000E-5,0.156906
4.360000E-5,0.166438
4.370000E-5,0.164250
4.380000E-5,0.169875
4.390000E-5,0.171750
4.400000E-5,0.155344
4.410000E-5,0.156750
4.420000E-5,0.148000
4.430000E-5,0.144563
4.440000E-5,0.155344
4.450000E-5,0.155031
4.460000E-5,0.148156
4.470000E-5,0.151438
4.480000E-5,0.151750
4.490000E-5,0.144406
4.500000E-5,0.146125
4.510000E-5,0.135344
4.520000E-5,0.151750
4.530000E-5,0.136906
4.540000E-5,0.147844
4.550000E-5,0.140969
4.560000E-5,0.144250
4.570000E-5,0.136906
4.580000E-5,0.137531
4.590000E-5,0.133313
4.600000E-5,0.128000
4.610000E-5,0.142219
4.620000E-5,0.137375
4.630000E-5,0.133313
4.640000E-5,0.144563
4.650000E-5,0.126281
4.660000E-5,0.118625
4.670000E-5,0.122375
4.680000E-5,0.134094
4.690000E-5,0.125812
4.700000E-5,0.133469
4.710000E-5,0.122531
4.720000E-5,0.131750
4.730000E-5,0.128000
4.740000E-5,0.126125
4.750000E-5,0.120656
4.760000E-5,0.133313
4.770000E-5,0.129875
4.780000E-5,0.130188
4.790000E-5,0.122375
4.800000E-5,0.144406
4.810000E-5,0.107844
4.820000E-5,0.117219
4.830000E-5,0.108000
4.840000E-5,0.120656
4.850000E-5,0.118469
4.860000E-5,0.123000
4.870000E-5,0.126125
4.880000E-5,0.109875
4.890000E-5,0.100812
4.900000E-5,0.104406
4.910000E-5,0.111750
4.920000E-5,0.109563
4.930000E-5,0.104094
4.940000E-5,0.115187
4.950000E-5,0.110188
4.960000E-5,0.108313
4.970000E-5,0.093313
4.980000E-5,0.087844
4.990000E-5,0.097219
