Time(s),Ch 1  (V),
0.000000,4.098469
5.000000E-7,4.070656
1.000000E-6,4.056750
1.500000E-6,4.053156
2.000000E-6,4.030812
2.500000E-6,4.016594
3.000000E-6,3.994094
3.500000E-6,3.962844
4.000000E-6,3.945188
4.500000E-6,3.924406
5.000000E-6,3.910969
5.500000E-6,3.886281
6.000000E-6,3.870500
6.500000E-6,3.844250
7.000000E-6,3.834250
7.500000E-6,3.814875
8.000000E-6,3.792375
8.500000E-6,3.758938
9.000000E-6,3.747531
9.500000E-6,3.731281
1.000000E-5,3.714250
1.050000E-5,3.695031
1.100000E-5,3.680813
1.150000E-5,3.653313
1.200000E-5,3.635969
1.250000E-5,3.616594
1.300000E-5,3.608000
1.350000E-5,3.588938
1.400000E-5,3.573313
1.450000E-5,3.550344
1.500000E-5,3.527844
1.550000E-5,3.512688
1.600000E-5,3.501906
1.650000E-5,3.481125
1.700000E-5,3.458469
1.750000E-5,3.448000
1.800000E-5,3.427219
1.850000E-5,3.406125
1.900000E-5,3.392375
1.950000E-5,3.371437
2.000000E-5,3.357531
2.050000E-5,3.343313
2.100000E-5,3.333469
2.150000E-5,3.310656
2.200000E-5,3.288312
2.250000E-5,3.263313
2.300000E-5,3.253156
2.350000E-5,3.232219
2.400000E-5,3.214875
2.450000E-5,3.208000
2.500000E-5,3.196281
2.550000E-5,3.176438
2.600000E-5,3.155813
2.650000E-5,3.141906
2.700000E-5,3.122844
2.750000E-5,3.115969
2.800000E-5,3.089562
2.850000E-5,3.075969
2.900000E-5,3.065187
2.950000E-5,3.048156
3.000000E-5,3.034250
3.050000E-5,3.016594
3.100000E-5,3.006125
3.150000E-5,2.988938
3.200000E-5,2.975031
3.250000E-5,2.966125
3.300000E-5,2.940187
3.350000E-5,2.924719
3.400000E-5,2.910500
3.450000E-5,2.894875
3.500000E-5,2.880969
3.550000E-5,2.869094
3.600000E-5,2.856594
3.650000E-5,2.835656
3.700000E-5,2.816906
3.750000E-5,2.801125
3.800000E-5,2.793781
3.850000E-5,2.776906
3.900000E-5,2.768156
3.950000E-5,2.754094
4.000000E-5,2.745188
4.050000E-5,2.734875
4.100000E-5,2.721281
4.150000E-5,2.698313
4.200000E-5,2.686438
4.250000E-5,2.663469
4.300000E-5,2.660188
4.350000E-5,2.642688
4.400000E-5,2.629094
4.450000E-5,2.609719
4.500000E-5,2.600969
4.550000E-5,2.593938
4.600000E-5,2.580188
4.650000E-5,2.559406
4.700000E-5,2.547219
4.750000E-5,2.541906
4.800000E-5,2.522531
4.850000E-5,2.517531
4.900000E-5,2.489875
4.950000E-5,2.486594
5.000000E-5,2.466750
5.050000E-5,2.463625
5.100000E-5,2.444719
5.150000E-5,2.434094
5.200000E-5,2.421750
5.250000E-5,2.409719
5.300000E-5,2.395969
5.350000E-5,2.380031
5.400000E-5,2.378469
5.450000E-5,2.369875
5.500000E-5,2.357375
5.550000E-5,2.345500
5.600000E-5,2.326125
5.650000E-5,2.312688
5.700000E-5,2.306906
5.750000E-5,2.293312
5.800000E-5,2.282531
5.850000E-5,2.270812
5.900000E-5,2.256594
5.950000E-5,2.246594
6.000000E-5,2.232219
6.050000E-5,2.227063
6.100000E-5,2.214875
6.150000E-5,2.208000
6.200000E-5,2.192375
6.250000E-5,2.185344
6.300000E-5,2.168000
6.350000E-5,2.159562
6.400000E-5,2.147063
6.450000E-5,2.135031
6.500000E-5,2.119250
6.550000E-5,2.115500
6.600000E-5,2.102219
6.650000E-5,2.094875
6.700000E-5,2.088000
6.750000E-5,2.068625
6.800000E-5,2.063938
6.850000E-5,2.051438
6.900000E-5,2.045969
6.950000E-5,2.025500
7.000000E-5,2.020500
7.050000E-5,2.011281
7.100000E-5,1.995812
7.150000E-5,1.992375
7.200000E-5,1.983625
7.250000E-5,1.963000
7.300000E-5,1.952063
7.350000E-5,1.948937
7.400000E-5,1.943625
7.450000E-5,1.928156
7.500000E-5,1.917375
7.550000E-5,1.910969
7.600000E-5,1.891438
7.650000E-5,1.882531
7.700000E-5,1.875656
7.750000E-5,1.865500
7.800000E-5,1.868938
7.850000E-5,1.856594
7.900000E-5,1.839406
7.950000E-5,1.825344
8.000000E-5,1.828938
8.050000E-5,1.814875
8.100000E-5,1.799250
8.150000E-5,1.785500
8.200000E-5,1.792375
8.250000E-5,1.771437
8.300000E-5,1.759250
8.350000E-5,1.759406
8.400000E-5,1.759250
8.450000E-5,1.741906
8.500000E-5,1.729875
8.550000E-5,1.731594
8.600000E-5,1.715656
8.650000E-5,1.717375
8.700000E-5,1.700344
8.750000E-5,1.682844
8.800000E-5,1.679094
8.850000E-5,1.679563
8.900000E-5,1.656438
8.950000E-5,1.656906
9.000000E-5,1.646125
9.050000E-5,1.639406
9.100000E-5,1.625500
9.150000E-5,1.618156
9.200000E-5,1.604563
9.250000E-5,1.606594
9.300000E-5,1.595344
9.350000E-5,1.583937
9.400000E-5,1.576594
9.450000E-5,1.569562
9.500000E-5,1.555969
9.550000E-5,1.552375
9.600000E-5,1.543625
9.650000E-5,1.536906
9.700000E-5,1.529719
9.750000E-5,1.524406
9.800000E-5,1.508781
9.850000E-5,1.507375
9.900000E-5,1.489719
9.950000E-5,1.493156
0.000100,1.491437
0.000100,1.472375
0.000101,1.463469
0.000102,1.465500
0.000102,1.456750
0.000102,1.441125
0.000103,1.439250
0.000103,1.425344
0.000104,1.414875
0.000104,1.416750
0.000105,1.409875
0.000105,1.400969
0.000106,1.385344
0.000107,1.383938
0.000107,1.381750
0.000107,1.380188
0.000108,1.367844
0.000108,1.348625
0.000109,1.347375
0.000109,1.336594
0.000110,1.338625
0.000110,1.324250
0.000111,1.328156
0.000111,1.319406
0.000112,1.312219
0.000112,1.303625
0.000113,1.300188
0.000113,1.293313
0.000114,1.284406
0.000114,1.274094
0.000115,1.268781
0.000115,1.262063
0.000116,1.258469
0.000116,1.248000
0.000117,1.228938
0.000117,1.237375
0.000118,1.223781
0.000118,1.213469
0.000119,1.213000
0.000119,1.209719
0.000120,1.208000
0.000120,1.195969
0.000121,1.192063
0.000121,1.183938
0.000122,1.181750
0.000122,1.168156
0.000123,1.171438
0.000123,1.157531
0.000124,1.147063
0.000124,1.157531
0.000125,1.145500
0.000125,1.131594
0.000126,1.127844
0.000126,1.129719
0.000127,1.119250
0.000127,1.119406
0.000128,1.108781
0.000129,1.105344
0.000129,1.098469
0.000130,1.089719
0.000130,1.086437
0.000131,1.066906
0.000131,1.072531
0.000131,1.065344
0.000132,1.054875
0.000132,1.048000
0.000133,1.044406
0.000133,1.039719
0.000134,1.028625
0.000134,1.035656
0.000135,1.022063
0.000135,1.009562
0.000136,1.018469
0.000136,1.004406
0.000137,1.006594
0.000137,1.002687
0.000138,0.997688
0.000139,0.995812
0.000139,0.983781
0.000140,0.985031
0.000140,0.976594
0.000140,0.968156
0.000141,0.975187
0.000141,0.964406
0.000142,0.954094
0.000142,0.955813
0.000143,0.938469
0.000143,0.934875
0.000144,0.938469
0.000144,0.936906
0.000145,0.924250
0.000145,0.917687
0.000146,0.919250
0.000146,0.910656
0.000147,0.901750
0.000147,0.902062
0.000148,0.891750
0.000149,0.891125
0.000149,0.882688
0.000150,0.882844
0.000150,0.872688
0.000150,0.867063
0.000151,0.870500
0.000151,0.853000
0.000152,0.856906
0.000152,0.840969
0.000153,0.848000
0.000153,0.846281
0.000154,0.844562
0.000154,0.832375
0.000155,0.830500
0.000155,0.821750
0.000156,0.810031
0.000156,0.813000
0.000157,0.813312
0.000157,0.802844
0.000158,0.804563
0.000159,0.797375
0.000159,0.790813
0.000160,0.792375
0.000160,0.781750
0.000160,0.783469
0.000161,0.780500
0.000161,0.766125
0.000162,0.769875
0.000162,0.762844
0.000163,0.755812
0.000163,0.752219
0.000164,0.750656
0.000164,0.745344
0.000165,0.738625
0.000165,0.741750
0.000166,0.729719
0.000166,0.724562
0.000167,0.720812
0.000168,0.721281
0.000168,0.717531
0.000169,0.717375
0.000169,0.705500
0.000169,0.709094
0.000170,0.706906
0.000170,0.700187
0.000171,0.689719
0.000171,0.686281
0.000172,0.688156
0.000172,0.684406
0.000173,0.677531
0.000173,0.674250
0.000174,0.680813
0.000174,0.672531
0.000175,0.661750
0.000175,0.663781
0.000176,0.658469
0.000176,0.660188
0.000177,0.654719
0.000178,0.644563
0.000178,0.634094
0.000179,0.634094
0.000179,0.637844
0.000179,0.626906
0.000180,0.630812
0.000180,0.621750
0.000181,0.616750
0.000181,0.609875
0.000182,0.611125
0.000182,0.611437
0.000183,0.604719
0.000183,0.607844
0.000184,0.597688
0.000184,0.590656
0.000185,0.590500
0.000185,0.580344
0.000186,0.588781
0.000186,0.569719
0.000187,0.590812
0.000188,0.580031
0.000188,0.562688
0.000189,0.578156
0.000189,0.564719
0.000189,0.566438
0.000190,0.562688
0.000190,0.564719
0.000191,0.546906
0.000191,0.545656
0.000192,0.555500
0.000192,0.540344
0.000193,0.541906
0.000193,0.545344
0.000194,0.536906
0.000194,0.529406
0.000195,0.533312
0.000195,0.533469
0.000196,0.529719
0.000196,0.522687
0.000197,0.528000
0.000198,0.519250
0.000198,0.510656
0.000199,0.522531
0.000199,0.507219
0.000199,0.500344
0.000200,0.498312
0.000200,0.496906
0.000201,0.496438
0.000201,0.488000
0.000202,0.484719
0.000202,0.489563
0.000203,0.482844
0.000203,0.483000
0.000204,0.479094
0.000204,0.463625
0.000205,0.472219
0.000205,0.463781
0.000206,0.461750
0.000206,0.465344
0.000207,0.456906
0.000208,0.456594
0.000208,0.448000
0.000208,0.448000
0.000209,0.444719
0.000209,0.447844
0.000210,0.448000
0.000210,0.446281
0.000211,0.441125
0.000211,0.437688
0.000212,0.435656
0.000212,0.437531
0.000213,0.435969
0.000213,0.435500
0.000214,0.420500
0.000214,0.420187
0.000215,0.421594
0.000215,0.418781
0.000216,0.413156
0.000216,0.409875
0.000217,0.413156
0.000218,0.399250
0.000218,0.400969
0.000218,0.404406
0.000219,0.399562
0.000219,0.397531
0.000220,0.395969
0.000220,0.398938
0.000221,0.389094
0.000221,0.385344
0.000222,0.382063
0.000222,0.385031
0.000223,0.376906
0.000223,0.376594
0.000224,0.375031
0.000224,0.371438
0.000225,0.373156
0.000225,0.375031
0.000226,0.366125
0.000227,0.368000
0.000227,0.362844
0.000228,0.352531
0.000228,0.359406
0.000228,0.354094
0.000229,0.359250
0.000229,0.343469
0.000230,0.353781
0.000230,0.343938
0.000231,0.354250
0.000231,0.345187
0.000232,0.343781
0.000232,0.338469
0.000233,0.333000
0.000233,0.331437
0.000234,0.340500
0.000234,0.339875
0.000235,0.336594
0.000235,0.328313
0.000236,0.327844
0.000237,0.328313
0.000237,0.329562
0.000237,0.322688
0.000238,0.317844
0.000238,0.313625
0.000239,0.310812
0.000239,0.308781
0.000240,0.314250
0.000240,0.301750
0.000241,0.300500
0.000241,0.310656
0.000242,0.308781
0.000242,0.294719
0.000243,0.295031
0.000243,0.293313
0.000244,0.293156
0.000244,0.293313
0.000245,0.293313
0.000246,0.285969
0.000246,0.293313
0.000246,0.283000
0.000247,0.282531
0.000247,0.289875
0.000248,0.293000
0.000248,0.279250
0.000249,0.275969
0.000249,0.275656
