Time(s),Ch 1  (V),
0.000000,4.242375
2.000000E-8,4.433781
4.000000E-8,4.273937
6.000000E-8,3.809094
8.000000E-8,4.293625
1.000000E-7,4.604406
1.200000E-7,3.962531
1.400000E-7,3.940813
1.600000E-7,4.337063
1.800000E-7,4.268000
2.000000E-7,3.984406
2.200000E-7,4.007844
2.400000E-7,4.248156
2.600000E-7,4.131594
2.800000E-7,3.873469
3.000000E-7,4.102531
3.200000E-7,4.240656
3.400000E-7,3.899094
3.600000E-7,3.918469
3.800000E-7,4.166594
4.000000E-7,4.009563
4.200000E-7,3.859094
4.400000E-7,4.027844
4.600000E-7,4.015344
4.800000E-7,3.893625
5.000000E-7,3.907531
5.200000E-7,3.940969
5.400000E-7,3.944250
5.600000E-7,3.862844
5.800000E-7,3.860344
6.000000E-7,3.919094
6.200000E-7,3.868156
6.400000E-7,3.793312
6.600000E-7,3.848156
6.800000E-7,3.889563
7.000000E-7,3.768000
7.200000E-7,3.760656
7.400000E-7,3.839094
7.600000E-7,3.771594
7.800000E-7,3.735344
8.000000E-7,3.749719
8.200000E-7,3.753625
8.400000E-7,3.722688
8.600000E-7,3.702531
8.800000E-7,3.711594
9.000000E-7,3.700656
9.200000E-7,3.686125
9.400000E-7,3.657219
9.600000E-7,3.684094
9.800000E-7,3.657219
1.000000E-6,3.611750
1.020000E-6,3.622531
1.040000E-6,3.633469
1.060000E-6,3.600812
1.080000E-6,3.567687
1.100000E-6,3.588156
1.120000E-6,3.586125
1.140000E-6,3.546281
1.160000E-6,3.557063
1.180000E-6,3.547844
1.200000E-6,3.524563
1.220000E-6,3.502531
1.240000E-6,3.508000
1.260000E-6,3.504250
1.280000E-6,3.473781
1.300000E-6,3.469406
1.320000E-6,3.459250
1.340000E-6,3.440656
1.360000E-6,3.431437
1.380000E-6,3.430031
1.400000E-6,3.406281
1.420000E-6,3.402375
1.440000E-6,3.385969
1.460000E-6,3.375500
1.480000E-6,3.362531
1.500000E-6,3.349875
1.520000E-6,3.349875
1.540000E-6,3.327844
1.560000E-6,3.308156
1.580000E-6,3.315187
1.600000E-6,3.304406
1.620000E-6,3.287844
1.640000E-6,3.262688
1.660000E-6,3.271594
1.680000E-6,3.267844
1.700000E-6,3.231750
1.720000E-6,3.246281
1.740000E-6,3.226125
1.760000E-6,3.200813
1.780000E-6,3.209719
1.800000E-6,3.199250
1.820000E-6,3.204094
1.840000E-6,3.169875
1.860000E-6,3.165969
1.880000E-6,3.169875
1.900000E-6,3.146281
1.920000E-6,3.138781
1.940000E-6,3.129875
1.960000E-6,3.120656
1.980000E-6,3.102531
2.000000E-6,3.091750
2.020000E-6,3.095188
2.040000E-6,3.078781
2.060000E-6,3.075188
2.080000E-6,3.051750
2.100000E-6,3.044406
2.120000E-6,3.044406
2.140000E-6,3.017063
2.160000E-6,3.013781
2.180000E-6,2.987844
2.200000E-6,2.993469
2.220000E-6,2.971594
2.240000E-6,2.973156
2.260000E-6,2.961281
2.280000E-6,2.949562
2.300000E-6,2.936906
2.320000E-6,2.920813
2.340000E-6,2.917063
2.360000E-6,2.899250
2.380000E-6,2.887688
2.400000E-6,2.871594
2.420000E-6,2.889719
2.440000E-6,2.868313
2.460000E-6,2.856750
2.480000E-6,2.862688
2.500000E-6,2.833469
2.520000E-6,2.836906
2.540000E-6,2.808312
2.560000E-6,2.822531
2.580000E-6,2.804250
2.600000E-6,2.777062
2.620000E-6,2.787844
2.640000E-6,2.779250
2.660000E-6,2.771594
2.680000E-6,2.744406
2.700000E-6,2.742531
2.720000E-6,2.747844
2.740000E-6,2.724563
2.760000E-6,2.725969
2.780000E-6,2.700969
2.800000E-6,2.713156
2.820000E-6,2.695500
2.840000E-6,2.685812
2.860000E-6,2.664406
2.880000E-6,2.660969
2.900000E-6,2.664406
2.920000E-6,2.644406
2.940000E-6,2.625969
2.960000E-6,2.628000
2.980000E-6,2.618937
3.000000E-6,2.609875
3.020000E-6,2.604250
3.040000E-6,2.595656
3.060000E-6,2.582219
3.080000E-6,2.568000
3.100000E-6,2.569562
3.120000E-6,2.552062
3.140000E-6,2.560812
3.160000E-6,2.536750
3.180000E-6,2.526438
3.200000E-6,2.529562
3.220000E-6,2.508313
3.240000E-6,2.506125
3.260000E-6,2.488000
3.280000E-6,2.495344
3.300000E-6,2.478625
3.320000E-6,2.460969
3.340000E-6,2.451437
3.360000E-6,2.440969
3.380000E-6,2.451281
3.400000E-6,2.419094
3.420000E-6,2.429875
3.440000E-6,2.418938
3.460000E-6,2.404406
3.480000E-6,2.402531
3.500000E-6,2.398625
3.520000E-6,2.384406
3.540000E-6,2.366437
3.560000E-6,2.380813
3.580000E-6,2.365969
3.600000E-6,2.360813
3.620000E-6,2.347688
3.640000E-6,2.339406
3.660000E-6,2.346125
3.680000E-6,2.311438
3.700000E-6,2.331750
3.720000E-6,2.298781
3.740000E-6,2.291750
3.760000E-6,2.300500
3.780000E-6,2.288000
3.800000E-6,2.282531
3.820000E-6,2.266437
3.840000E-6,2.257062
3.860000E-6,2.256906
3.880000E-6,2.253312
3.900000E-6,2.231906
3.920000E-6,2.220500
3.940000E-6,2.222844
3.960000E-6,2.215344
3.980000E-6,2.198781
4.000000E-6,2.208000
4.020000E-6,2.177219
4.040000E-6,2.184250
4.060000E-6,2.173469
4.080000E-6,2.157062
4.100000E-6,2.166125
4.120000E-6,2.153156
4.140000E-6,2.155656
4.160000E-6,2.140813
4.180000E-6,2.129719
4.200000E-6,2.106125
4.220000E-6,2.115188
4.240000E-6,2.115344
4.260000E-6,2.102531
4.280000E-6,2.091594
4.300000E-6,2.082688
4.320000E-6,2.082375
4.340000E-6,2.068156
4.360000E-6,2.071750
4.380000E-6,2.047844
4.400000E-6,2.060812
4.420000E-6,2.042531
4.440000E-6,2.033469
4.460000E-6,2.046125
4.480000E-6,2.015344
4.500000E-6,2.016906
4.520000E-6,2.006281
4.540000E-6,2.018781
4.560000E-6,1.995188
4.580000E-6,1.973625
4.600000E-6,1.989875
4.620000E-6,1.973469
4.640000E-6,1.973469
4.660000E-6,1.960656
4.680000E-6,1.951594
4.700000E-6,1.953469
4.720000E-6,1.931594
4.740000E-6,1.938937
4.760000E-6,1.922844
4.780000E-6,1.922219
4.800000E-6,1.911594
4.820000E-6,1.908156
4.840000E-6,1.904250
4.860000E-6,1.886594
4.880000E-6,1.896906
4.900000E-6,1.875188
4.920000E-6,1.871594
4.940000E-6,1.875188
4.960000E-6,1.855344
4.980000E-6,1.868156
5.000000E-6,1.842531
5.020000E-6,1.842219
5.040000E-6,1.833625
5.060000E-6,1.822375
5.080000E-6,1.833625
5.100000E-6,1.811750
5.120000E-6,1.818625
5.140000E-6,1.808000
5.160000E-6,1.800969
5.180000E-6,1.793313
5.200000E-6,1.786438
5.220000E-6,1.780656
5.240000E-6,1.773313
5.260000E-6,1.773313
5.280000E-6,1.751750
5.300000E-6,1.755500
5.320000E-6,1.749719
5.340000E-6,1.747844
5.360000E-6,1.742687
5.380000E-6,1.737062
5.400000E-6,1.738781
5.420000E-6,1.706281
5.440000E-6,1.724250
5.460000E-6,1.711750
5.480000E-6,1.708000
5.500000E-6,1.704250
5.520000E-6,1.684406
5.540000E-6,1.682531
5.560000E-6,1.675500
5.580000E-6,1.673312
5.600000E-6,1.668000
5.620000E-6,1.664250
5.640000E-6,1.653469
5.660000E-6,1.642531
5.680000E-6,1.657063
5.700000E-6,1.638937
5.720000E-6,1.631750
5.740000E-6,1.635031
5.760000E-6,1.617219
5.780000E-6,1.633469
5.800000E-6,1.609875
5.820000E-6,1.604250
5.840000E-6,1.613781
5.860000E-6,1.602375
5.880000E-6,1.602375
5.900000E-6,1.579406
5.920000E-6,1.589562
5.940000E-6,1.571750
5.960000E-6,1.564406
5.980000E-6,1.571594
6.000000E-6,1.555187
6.020000E-6,1.562688
6.040000E-6,1.542531
6.060000E-6,1.555187
6.080000E-6,1.538781
6.100000E-6,1.542531
6.120000E-6,1.513313
6.140000E-6,1.522844
6.160000E-6,1.518781
6.180000E-6,1.497062
6.200000E-6,1.497219
6.220000E-6,1.498781
6.240000E-6,1.497062
6.260000E-6,1.491750
6.280000E-6,1.489719
6.300000E-6,1.490031
6.320000E-6,1.464250
6.340000E-6,1.471750
6.360000E-6,1.453469
6.380000E-6,1.455031
6.400000E-6,1.442531
6.420000E-6,1.448156
6.440000E-6,1.467688
6.460000E-6,1.433469
6.480000E-6,1.424719
6.500000E-6,1.416750
6.520000E-6,1.431594
6.540000E-6,1.426438
6.560000E-6,1.413312
6.580000E-6,1.410031
6.600000E-6,1.404562
6.620000E-6,1.408000
6.640000E-6,1.396750
6.660000E-6,1.391438
6.680000E-6,1.379094
6.700000E-6,1.373469
6.720000E-6,1.387844
6.740000E-6,1.362688
6.760000E-6,1.376750
6.780000E-6,1.364875
6.800000E-6,1.360656
6.820000E-6,1.351750
6.840000E-6,1.338938
6.860000E-6,1.362219
6.880000E-6,1.335344
6.900000E-6,1.333469
6.920000E-6,1.328000
6.940000E-6,1.324250
6.960000E-6,1.322531
6.980000E-6,1.311906
7.000000E-6,1.316906
7.020000E-6,1.309875
7.040000E-6,1.293313
7.060000E-6,1.317375
7.080000E-6,1.296750
7.100000E-6,1.300812
7.120000E-6,1.290031
7.140000E-6,1.287844
7.160000E-6,1.275500
7.180000E-6,1.260813
7.200000E-6,1.271281
7.220000E-6,1.268156
7.240000E-6,1.267844
7.260000E-6,1.255344
7.280000E-6,1.246125
7.300000E-6,1.246281
7.320000E-6,1.246281
7.340000E-6,1.228000
7.360000E-6,1.238781
7.380000E-6,1.240969
7.400000E-6,1.222219
7.420000E-6,1.217062
7.440000E-6,1.215500
7.460000E-6,1.218938
7.480000E-6,1.208156
7.500000E-6,1.205812
7.520000E-6,1.200969
7.540000E-6,1.189563
7.560000E-6,1.195656
7.580000E-6,1.187844
7.600000E-6,1.171594
7.620000E-6,1.189875
7.640000E-6,1.180656
7.660000E-6,1.177219
7.680000E-6,1.171281
7.700000E-6,1.159250
7.720000E-6,1.175031
7.740000E-6,1.155344
7.760000E-6,1.169719
7.780000E-6,1.146125
7.800000E-6,1.155344
7.820000E-6,1.144406
7.840000E-6,1.139094
7.860000E-6,1.146125
7.880000E-6,1.128000
7.900000E-6,1.126281
7.920000E-6,1.111594
7.940000E-6,1.115031
7.960000E-6,1.120969
7.980000E-6,1.109719
8.000000E-6,1.124250
8.020000E-6,1.111906
8.040000E-6,1.104250
8.060000E-6,1.095031
8.080000E-6,1.106281
8.100000E-6,1.088156
8.120000E-6,1.095344
8.140000E-6,1.078938
8.160000E-6,1.073313
8.180000E-6,1.069719
8.200000E-6,1.067844
8.220000E-6,1.079094
8.240000E-6,1.060969
8.260000E-6,1.056906
8.280000E-6,1.060656
8.300000E-6,1.057219
8.320000E-6,1.042375
8.340000E-6,1.049719
8.360000E-6,1.033781
8.380000E-6,1.029562
8.400000E-6,1.030031
8.420000E-6,1.042531
8.440000E-6,1.024250
8.460000E-6,1.026438
8.480000E-6,1.013313
8.500000E-6,1.022375
8.520000E-6,1.020969
8.540000E-6,0.993313
8.560000E-6,1.004406
8.580000E-6,1.002687
8.600000E-6,0.995031
8.620000E-6,0.991594
8.640000E-6,0.984719
8.660000E-6,0.994719
8.680000E-6,0.979250
8.700000E-6,0.998938
8.720000E-6,0.978781
8.740000E-6,0.979094
8.760000E-6,0.975187
8.780000E-6,0.971750
8.800000E-6,0.969562
8.820000E-6,0.951750
8.840000E-6,0.966281
8.860000E-6,0.951438
8.880000E-6,0.962531
8.900000E-6,0.955344
8.920000E-6,0.945969
8.940000E-6,0.948313
8.960000E-6,0.933312
8.980000E-6,0.948000
9.000000E-6,0.937063
9.020000E-6,0.937375
9.040000E-6,0.935188
9.060000E-6,0.924250
9.080000E-6,0.937219
9.100000E-6,0.904250
9.120000E-6,0.911750
9.140000E-6,0.924094
9.160000E-6,0.906281
9.180000E-6,0.911594
9.200000E-6,0.906281
9.220000E-6,0.904094
9.240000E-6,0.901125
9.260000E-6,0.891594
9.280000E-6,0.898781
9.300000E-6,0.888156
9.320000E-6,0.882375
9.340000E-6,0.875344
9.360000E-6,0.882531
9.380000E-6,0.887844
9.400000E-6,0.877062
9.420000E-6,0.868156
9.440000E-6,0.857063
9.460000E-6,0.871594
9.480000E-6,0.866437
9.500000E-6,0.853469
9.520000E-6,0.855187
9.540000E-6,0.851281
9.560000E-6,0.846438
9.580000E-6,0.846125
9.600000E-6,0.864563
9.620000E-6,0.833469
9.640000E-6,0.853156
9.660000E-6,0.830031
9.680000E-6,0.827844
9.700000E-6,0.837219
9.720000E-6,0.829719
9.740000E-6,0.835500
9.760000E-6,0.813469
9.780000E-6,0.827688
9.800000E-6,0.831906
9.820000E-6,0.822375
9.840000E-6,0.809875
9.860000E-6,0.815188
9.880000E-6,0.810031
9.900000E-6,0.811438
9.920000E-6,0.798937
9.940000E-6,0.797063
9.960000E-6,0.797219
9.980000E-6,0.796906
